time(s)					voltage (mv)	control	SB488	SB488+SB779	diff (TRPV4 current)
0					-98.7305	-28.9917	-144.348	-50.0488    -94.2992
5.00E-04				-98.6023	-29.6021	-134.888	-43.9453    -90.9427
0.001					-98.5229	-30.5176	-119.324	-53.7109    -65.6131
0.0015					-98.4314	-28.3813	-139.771	-50.9644    -88.8066
0.002					-98.3215	-29.6021	-133.057	-50.0488    -83.0082
0.0025					-98.2056	-29.2969	-142.517	-48.5229    -93.9941
0.003					-98.1262	-31.7383	-128.784	-54.9316    -73.8524
0.0035					-98.0103	-28.6865	-137.939	-52.4902    -85.4488
0.004					-97.9126	-27.4658	-138.55		-51.2695    -87.2805
0.0045					-97.8394	-29.2969	-145.264	-53.4058    -91.8582
0.005					-97.6929	-28.3813	-138.245	-57.373	    -80.872
0.0055					-97.644		-28.0762	-137.329	-54.0161    -83.3129
0.006					-97.5464	-26.5503	-132.751	-53.7109    -79.0401
0.0065					-97.4243	-25.0244	-129.089	-59.8145    -69.2745
0.007					-97.3206	-28.9917	-130.005	-61.3403    -68.6647
0.0075					-97.2168	-28.0762	-145.264	-61.3403    -83.9237
0.008					-97.1436	-26.5503	-151.672	-51.8799    -99.7921
0.0085					-97.0337	-28.3813	-156.86		-57.0679    -99.7921
0.009					-96.9177	-27.4658	-148.926	-59.8145    -89.1115
0.0095					-96.8018	-26.5503	-140.991	-62.8662    -78.1248
0.01					-96.7285	-23.1934	-138.245	-54.6265    -83.6185
0.0105					-96.6125	-27.4658	-132.751	-54.9316    -77.8194
0.011					-96.5271	-26.8555	-121.155	-54.3213    -66.8337
0.0115					-96.4294	-25.3296	-134.583	-58.8989    -75.6841
0.012					-96.3257	-25.0244	-144.348	-52.1851    -92.1629
0.0125					-96.2585	-25.0244	-148.926	-49.1333    -99.7927
0.013					-96.1182	-26.5503	-137.634	-51.2695    -86.3645
0.0135					-96.051		-25.6348	-131.531	-52.4902    -79.0408
0.014					-95.9473	-25.9399	-147.705	-47.6074    -100.0976
0.0145					-95.813		-27.771		-131.531	-54.0161    -77.5149
0.015					-95.7336	-25.6348	-134.277	-52.1851    -82.0919
0.0155					-95.6116	-29.6021	-136.414	-42.7246    -93.6894
0.016					-95.5322	-26.8555	-135.498	-50.6592    -84.8388
0.0165					-95.4407	-27.1606	-142.517	-54.9316    -87.5854
0.017					-95.3308	-29.9072	-134.277	-47.6074    -86.6696
0.0175					-95.2271	-27.4658	-140.991	-48.2178    -92.7732
0.018					-95.1172	-27.1606	-144.043	-47.3022    -96.7408
0.0185					-95.05		-27.4658	-146.179	-51.8799    -94.2991
0.019					-94.9158	-31.4331	-149.231	-49.7437    -99.4873
0.0195					-94.8303	-27.4658	-137.024	-52.1851    -84.8389
0.02					-94.7449	-26.8555	-116.882	-50.0488    -66.8332
0.0205					-94.6472	-25.6348	-139.771	-46.3867    -93.3843
0.021					-94.5068	-25.3296	-135.803	-41.8091    -93.9939
0.0215					-94.4397	-26.8555	-130.92		-40.8936    -90.0264
0.022					-94.3237	-29.6021	-135.803	-38.7573    -97.0457
0.0225					-94.2383	-28.0762	-124.207	-47.6074    -76.5996
0.023					-94.1467	-26.5503	-146.179	-44.5557    -101.6233
0.0235					-94.043		-26.8555	-138.55		-45.7764    -92.7736
0.024					-93.927		-29.2969	-145.874	-49.4385    -96.4355
0.0245					-93.8354	-30.8228	-151.367	-50.6592    -100.7078
0.025					-93.7439	-27.1606	-142.517	-44.2505    -98.2665
0.0255					-93.6279	-24.4141	-122.07		-48.5229    -73.5471
0.026					-93.5181	-27.4658	-131.531	-41.5039    -90.0271
0.0265					-93.4326	-25.3296	-143.738	-50.354	    -93.384
0.027					-93.3289	-26.8555	-129.089	-55.542	    -73.547
0.0275					-93.2495	-25.6348	-128.479	-53.1006    -75.3784
0.028					-93.1396	-25.9399	-137.634	-48.5229    -89.1111
0.0285					-93.0237	-27.4658	-146.79		-50.6592    -96.1308
0.029					-92.9321	-25.9399	-133.972	-44.8608    -89.1112
0.0295					-92.865		-23.4985	-120.544	-49.7437    -70.8003
0.03					-92.7307	-24.7192	-110.474	-48.8281    -61.6459
0.0305					-92.6331	-25.9399	-121.46		-46.6919    -74.7681
0.031					-92.5537	-26.2451	-121.155	-46.6919    -74.4631
0.0315					-92.4316	-26.8555	-119.629	-48.2178    -71.4112
0.032					-92.3584	-25.0244	-117.798	-50.354	    -67.444
0.0325					-92.2363	-27.4658	-117.493	-50.6592    -66.8338
0.033					-92.1387	-27.1606	-125.122	-43.335	    -81.787
0.0335					-92.041		-24.1089	-124.207	-41.8091    -82.3979
0.034					-91.9373	-25.0244	-111.084	-44.8608    -66.2232
0.0345					-91.8579	-24.4141	-120.239	-47.9126    -72.3264
0.035					-91.7542	-28.0762	-121.765	-45.7764    -75.9886
0.0355					-91.6565	-24.4141	-129.7		-44.5557    -85.1443
0.036					-91.5466	-27.771		-136.414	-49.7437    -86.6703
0.0365					-91.4307	-27.1606	-132.446	-49.1333    -83.3127
0.037					-91.3513	-26.8555	-128.784	-46.0815    -82.7025
0.0375					-91.2292	-29.6021	-131.531	-51.8799    -79.6511
0.038					-91.1499	-25.3296	-134.888	-44.8608    -90.0272
0.0385					-91.0278	-28.3813	-130.92		-40.8936    -90.0264
0.039					-90.9668	-28.0762	-119.019	-42.1143    -76.9047
0.0395					-90.8569	-26.8555	-135.193	-35.7056    -99.4874
0.04					-90.7532	-28.3813	-137.329	-42.1143    -95.2147
0.0405					-90.6677	-28.9917	-126.953	-48.2178    -78.7352
0.041					-90.5518	-29.6021	-116.272	-47.9126    -68.3594
0.0415					-90.4358	-24.7192	-125.122	-48.5229    -76.5991
0.042					-90.3625	-26.5503	-129.395	-47.6074    -81.7876
0.0425					-90.2405	-27.4658	-135.193	-49.7437    -85.4493
0.043					-90.1428	-27.4658	-128.174	-44.8608    -83.3132
0.0435					-90.0269	-26.2451	-134.888	-46.0815    -88.8065
0.044					-89.9292	-27.4658	-137.634	-43.335	    -94.299
0.0445					-89.8438	-26.5503	-137.939	-40.8936    -97.0454
0.045					-89.7644	-25.0244	-129.395	-44.5557    -84.8393
0.0455					-89.6362	-24.7192	-136.719	-40.5884    -96.1306
0.046					-89.5569	-24.1089	-138.245	-45.166	    -93.079
0.0465					-89.4714	-22.8882	-135.498	-37.5366    -97.9614
0.047					-89.3311	-26.2451	-122.986	-35.7056    -87.2804
0.0475					-89.27		-24.7192	-107.117	-33.5693    -73.5477
0.048					-89.1724	-25.6348	-113.831	-36.3159    -77.5151
0.0485					-89.0686	-24.4141	-125.427	-36.3159    -89.1111
0.049					-88.9587	-25.0244	-127.563	-40.5884    -86.9746
0.0495					-88.8428	-23.8037	-111.389	-46.3867    -65.0023
0.05					-88.7573	-26.8555	-121.765	-41.5039    -80.2611
0.0505					-88.6414	-25.0244	-133.667	-45.166	    -88.501
0.051					-88.562		-24.1089	-121.155	-43.9453    -77.2097
0.0515					-88.4583	-26.2451	-124.817	-43.335	    -81.482
0.052					-88.3484	-25.9399	-120.544	-39.6729    -80.8711
0.0525					-88.2629	-24.1089	-114.746	-40.2832    -74.4628
0.053					-88.147		-25.6348	-107.727	-44.2505    -63.4765
0.0535					-88.0493	-25.9399	-113.525	-45.4712    -68.0538
0.054					-87.97		-26.2451	-112.61		-41.5039    -71.1061
0.0545					-87.854		-24.1089	-113.831	-42.7246    -71.1064
0.055					-87.7563	-25.6348	-114.746	-41.8091    -72.9369
0.0555					-87.6526	-23.4985	-108.032	-42.4194    -65.6126
0.056					-87.5732	-25.3296	-113.831	-39.0625    -74.7685
0.0565					-87.4634	-22.2778	-113.22		-37.8418    -75.3782
0.057					-87.3657	-22.8882	-104.065	-38.7573    -65.3077
0.0575					-87.262		-22.2778	-112.61		-37.2314    -75.3786
0.058					-87.1399	-23.8037	-113.525	-36.3159    -77.2091
0.0585					-87.0605	-24.1089	-120.85		-34.4849    -86.3651
0.059					-86.9385	-24.7192	-118.408	-43.0298    -75.3782
0.0595					-86.8652	-25.6348	-118.713	-40.8936    -77.8194
0.06					-86.7615	-23.8037	-127.258	-39.6729    -87.5851
0.0605					-86.6577	-26.5503	-125.427	-43.9453    -81.4817
0.061					-86.554		-23.1934	-121.155	-39.978	    -81.177
0.0615					-86.438		-25.9399	-114.136	-39.978	    -74.158
0.062					-86.3525	-24.1089	-129.7		-38.7573    -90.9427
0.0625					-86.2366	-25.0244	-113.831	-43.335	    -70.496
0.063					-86.1633	-25.3296	-127.563	-39.6729    -87.8901
0.0635					-86.0474	-24.4141	-134.888	-40.5884    -94.2996
0.064					-85.9741	-23.4985	-121.46		-39.6729    -81.7871
0.0645					-85.8582	-24.4141	-118.103	-45.166	    -72.937
0.065					-85.7483	-25.6348	-106.812	-39.978	    -66.834
0.0655					-85.6628	-24.4141	-103.76		-37.2314    -66.5286
0.066					-85.5774	-22.2778	-107.727	-39.978	    -67.749
0.0665					-85.4553	-25.0244	-116.272	-40.8936    -75.3784
0.067					-85.3638	-25.6348	-113.831	-41.1987    -72.6323
0.0675					-85.2539	-25.3296	-101.624	-35.7056    -65.9184
0.068					-85.1563	-22.583		-106.812	-40.5884    -66.2236
0.0685					-85.0647	-22.8882	-106.506	-39.978	    -66.528
0.069					-84.9609	-25.0244	-111.694	-36.0107    -75.6833
0.0695					-84.8511	-24.4141	-121.155	-39.3677    -81.7873
0.07					-84.7473	-26.5503	-111.084	-38.147	    -72.937
0.0705					-84.6619	-23.1934	-108.337	-38.7573    -69.5797
0.071					-84.5398	-25.3296	-104.065	-33.2642    -70.8008
0.0715					-84.4482	-22.8882	-107.422	-34.4849    -72.9371
0.072					-84.3689	-22.8882	-103.76		-39.3677    -64.3923
0.0725					-84.2529	-23.4985	-98.877		-39.978	    -58.899
0.073					-84.1553	-23.4985	-105.896	-35.7056    -70.1904
0.0735					-84.0576	-20.4468	-104.37		-35.4004    -68.9696
0.074					-83.9539	-22.2778	-101.624	-34.4849    -67.1391
0.0745					-83.8623	-22.8882	-109.558	-36.6211    -72.9369
0.075					-83.7769	-21.0571	-106.201	-42.1143    -64.0867
0.0755					-83.6609	-24.1089	-111.389	-40.2832    -71.1058
0.076					-83.5571	-24.7192	-107.727	-39.978	    -67.749
0.0765					-83.4717	-24.1089	-109.558	-36.0107    -73.5473
0.077					-83.3801	-20.4468	-116.577	-39.0625    -77.5145
0.0775					-83.2703	-22.583		-118.408	-40.8936    -77.5144
0.078					-83.1604	-23.8037	-116.577	-45.166	    -71.411
0.0785					-83.0505	-21.6675	-110.168	-37.8418    -72.3262
0.079					-82.9773	-25.9399	-110.474	-38.4521    -72.0219
0.0795					-82.8674	-26.8555	-114.441	-37.5366    -76.9044
0.08					-82.7698	-25.0244	-111.694	-38.147	    -73.547
0.0805					-82.666		-24.4141	-118.713	-35.0952    -83.6178
0.081					-82.5867	-23.4985	-112.61		-35.4004    -77.2096
0.0815					-82.4768	-25.9399	-112.61		-37.2314    -75.3786
0.082					-82.3792	-26.5503	-114.441	-34.1797    -80.2613
0.0825					-82.2815	-22.583		-104.675	-36.6211    -68.0539
0.083					-82.1655	-21.3623	-115.967	-30.8228    -85.1442
0.0835					-82.0679	-25.6348	-106.506	-39.6729    -66.8331
0.084					-81.958		-22.8882	-95.2148	-34.1797    -61.0351
0.0845					-81.8665	-21.0571	-98.877		-31.1279    -67.7491
0.085					-81.7688	-24.1089	-95.2148	-33.5693    -61.6455
0.0855					-81.665		-22.8882	-97.6563	-35.7056    -61.9507
0.086					-81.5735	-25.6348	-100.403	-33.5693    -66.8337
0.0865					-81.4514	-20.1416	-108.643	-31.4331    -77.2099
0.087					-81.3782	-20.4468	-106.506	-28.6865    -77.8195
0.0875					-81.2683	-23.8037	-106.506	-34.79	    -71.716
0.088					-81.1707	-25.3296	-109.558	-35.0952    -74.4628
0.0885					-81.0791	-22.8882	-101.929	-39.6729    -62.2561
0.089					-80.9509	-20.752		-110.474	-36.3159    -74.1581
0.0895					-80.8533	-27.4658	-116.882	-39.0625    -77.8195
0.09					-80.7495	-27.4658	-112.915	-37.2314    -75.6836
0.0905					-80.6519	-26.2451	-114.136	-29.2969    -84.8391
0.091					-80.5542	-26.8555	-119.324	-27.4658    -91.8582
0.0915					-80.4749	-23.8037	-112.305	-31.1279    -81.1771
0.092					-80.3589	-26.5503	-112.915	-29.6021    -83.3129
0.0925					-80.2734	-24.7192	-111.084	-37.2314    -73.8526
0.093					-80.1697	-27.1606	-112.915	-41.8091    -71.1059
0.0935					-80.0537	-26.5503	-110.168	-38.7573    -71.4107
0.094					-79.9561	-26.5503	-104.675	-35.7056    -68.9694
0.0945					-79.8706	-24.1089	-106.812	-33.8745    -72.9375
0.095					-79.7668	-25.3296	-104.675	-33.8745    -70.8005
0.0955					-79.6509	-23.8037	-111.084	-32.3486    -78.7354
0.096					-79.5715	-25.6348	-101.013	-31.1279    -69.8851
0.0965					-79.4861	-21.6675	-103.76		-33.5693    -70.1907
0.097					-79.3579	-23.1934	-100.098	-32.3486    -67.7494
0.0975					-79.2847	-22.8882	-106.812	-29.9072    -76.9048
0.098					-79.1748	-23.8037	-104.37		-32.959	    -71.411
0.0985					-79.071		-21.6675	-94.9097	-34.4849    -60.4248
0.099					-78.9917	-25.0244	-103.149	-32.3486    -70.8004
0.0995					-78.8757	-24.7192	-109.253	-30.8228    -78.4302
0.1					-78.7659	-27.771		-96.4355	-32.959	    -63.4765
0.1005					-78.6865	-22.583		-99.4873	-31.1279    -68.3594
0.101					-78.5706	-25.9399	-104.065	-35.4004    -68.6646
0.1015					-78.4546	-24.1089	-101.013	-33.5693    -67.4437
0.102					-78.3508	-24.4141	-105.896	-39.6729    -66.2231
0.1025					-78.2532	-22.2778	-100.403	-34.4849    -65.9181
0.103					-78.1616	-22.8882	-110.168	-33.2642    -76.9038
0.1035					-78.0701	-21.3623	-101.624	-34.1797    -67.4443
0.104					-77.948		-21.3623	-106.506	-35.4004    -71.1056
0.1045					-77.8931	-20.752		-104.065	-35.0952    -68.9698
0.105					-77.7832	-18.6157	-107.117	-35.0952    -72.0218
0.1055					-77.6611	-22.583		-100.708	-30.5176    -70.1904
0.106					-77.5635	-20.752		-103.455	-35.0952    -68.3598
0.1065					-77.4719	-19.5313	-110.168	-33.8745    -76.2935
0.107					-77.3743	-22.2778	-101.929	-32.3486    -69.5804
0.1075					-77.2644	-23.8037	-102.539	-38.147	    -64.392
0.108					-77.1851	-23.1934	-98.877		-38.147	    -60.73
0.1085					-77.0935	-23.1934	-95.2148	-36.9263    -58.2885
0.109					-76.9775	-24.1089	-97.3511	-35.4004    -61.9507
0.1095					-76.8677	-23.1934	-106.201	-32.959	    -73.242
0.11					-76.7761	-18.0054	-104.98		-32.3486    -72.6314
0.1105					-76.6846	-24.4141	-104.675	-30.5176    -74.1574
0.111					-76.5625	-21.6675	-105.591	-30.5176    -75.0734
0.1115					-76.4648	-26.5503	-99.4873	-29.9072    -69.5801
0.112					-76.3794	-26.8555	-90.6372	-34.79	    -55.8472
0.1125					-76.2695	-25.6348	-91.5527	-31.4331    -60.1196
0.113					-76.1963	-23.8037	-91.5527	-32.0435    -59.5092
0.1135					-76.0803	-23.8037	-99.7925	-32.6538    -67.1387
0.114					-75.9766	-26.8555	-95.2148	-35.7056    -59.5092
0.1145					-75.8667	-23.4985	-96.4355	-34.1797    -62.2558
0.115					-75.769		-25.9399	-90.9424	-31.1279    -59.8145
0.1155					-75.6653	-25.6348	-97.6563	-33.5693    -64.087
0.116					-75.5798	-23.8037	-92.7734	-36.3159    -56.4575
0.1165					-75.4883	-22.2778	-96.4355	-37.2314    -59.2041
0.117					-75.3784	-25.6348	-94.6045	-36.0107    -58.5938
0.1175					-75.293		-26.2451	-87.2803	-37.2314    -50.0489
0.118					-75.1831	-24.1089	-87.8906	-35.0952    -52.7954
0.1185					-75.0793	-26.2451	-83.313		-33.5693    -49.7437
0.119					-74.9817	-26.2451	-93.689		-28.3813    -65.3077
0.1195					-74.884		-24.1089	-90.9424	-27.4658    -63.4766
0.12					-74.7803	-21.9727	-93.0786	-36.9263    -56.1523
0.1205					-74.6765	-21.6675	-97.0459	-31.4331    -65.6128
0.121					-74.5972	-25.3296	-100.098	-32.6538    -67.4442
0.1215					-74.4995	-27.1606	-95.52		-32.959	    -62.561
0.122					-74.3713	-27.4658	-86.9751	-33.5693    -53.4058
0.1225					-74.2981	-25.6348	-90.6372	-32.6538    -57.9834
0.123					-74.1882	-26.2451	-86.3647	-31.4331    -54.9316
0.1235					-74.0845	-25.9399	-97.3511	-34.4849    -62.8662
0.124					-73.9929	-23.8037	-93.0786	-32.6538    -60.4248
0.1245					-73.8953	-24.1089	-89.7217	-29.6021    -60.1196
0.125					-73.7732	-27.771		-92.1631	-29.2969    -62.8662
0.1255					-73.7		-25.9399	-92.1631	-31.1279    -61.0352
0.126					-73.5779	-22.2778	-96.1304	-33.8745    -62.2559
0.1265					-73.468		-20.752		-102.844	-32.6538    -70.1902
0.127					-73.3826	-24.4141	-105.896	-33.2642    -72.6318
0.1275					-73.2727	-23.1934	-97.3511	-36.6211    -60.73
0.128					-73.175		-25.9399	-86.6699	-32.6538    -54.0161
0.1285					-73.0774	-25.6348	-84.5337	-33.2642    -51.2695
0.129					-72.9675	-24.1089	-84.2285	-32.0435    -52.185
0.1295					-72.9065	-22.583		-79.9561	-34.1797    -45.7764
0.13					-72.8027	-23.8037	-81.4819	-29.6021    -51.8798
0.1305					-72.6746	-24.4141	-86.0596	-30.8228    -55.2368
0.131					-72.5891	-22.583		-88.8062	-31.4331    -57.3731
0.1315					-72.5037	-26.8555	-90.0269	-34.4849    -55.542
0.132					-72.3999	-24.1089	-89.4165	-32.959	    -56.4575
0.1325					-72.2839	-20.752		-86.9751	-27.4658    -59.5093
0.133					-72.1741	-22.8882	-99.4873	-27.771	    -71.7163
0.1335					-72.1069	-25.3296	-89.7217	-31.4331    -58.2886
0.134					-71.9788	-28.3813	-91.2476	-29.9072    -61.3404
0.1345					-71.8872	-22.583		-89.4165	-26.2451    -63.1714
0.135					-71.8018	-20.752		-84.8389	-30.5176    -54.3213
0.1355					-71.6919	-18.3105	-94.6045	-29.2969    -65.3076
0.136					-71.5881	-18.0054	-86.9751	-32.3486    -54.6265
0.1365					-71.4783	-20.752		-87.5854	-28.6865    -58.8989
0.137					-71.3989	-20.752		-89.4165	-28.3813    -61.0352
0.1375					-71.2952	-21.0571	-82.7026	-27.1606    -55.542
0.138					-71.2097	-20.4468	-89.4165	-32.3486    -57.0679
0.1385					-71.0999	-20.1416	-92.1631	-34.79	    -57.3731
0.139					-71.0022	-20.1416	-79.6509	-32.959	    -46.6919
0.1395					-70.8862	-17.7002	-81.4819	-34.1797    -47.3022
0.14					-70.7825	-21.3623	-81.1768	-33.8745    -47.3023
0.1405					-70.6848	-21.3623	-83.9233	-32.6538    -51.2695
0.141					-70.6116	-18.6157	-87.8906	-36.0107    -51.8799
0.1415					-70.4895	-18.9209	-78.7354	-34.4849    -44.2505
0.142					-70.3979	-20.752		-84.8389	-32.3486    -52.4903
0.1425					-70.2881	-21.3623	-78.125		-29.9072    -48.2178
0.143					-70.2026	-18.6157	-77.2095	-31.1279    -46.0816
0.1435					-70.105		-22.2778	-90.0269	-40.8936    -49.1333
0.144					-69.9951	-16.7847	-80.8716	-39.0625    -41.8091
0.1445					-69.8853	-20.1416	-83.9233	-35.4004    -48.5229
0.145					-69.7876	-20.752		-90.9424	-39.3677    -51.5747
0.1455					-69.6838	-22.8882	-89.7217	-39.978	    -49.7437
0.146					-69.574		-20.752		-85.144		-31.7383    -53.4057
0.1465					-69.4824	-19.8364	-84.2285	-31.1279    -53.1006
0.147					-69.3909	-19.5313	-87.2803	-31.4331    -55.8472
0.1475					-69.2871	-18.3105	-85.4492	-37.8418    -47.6074
0.148					-69.2078	-17.7002	-79.0405	-33.5693    -45.4712
0.1485					-69.104		-18.0054	-88.501		-34.1797    -54.3213
0.149					-68.9941	-19.5313	-91.5527	-29.9072    -61.6455
0.1495					-68.8904	-20.4468	-82.7026	-32.6538    -50.0488
0.15					-68.8171	-16.4795	-87.8906	-32.959	    -54.9316
0.1505					-68.689		-21.3623	-87.5854	-30.5176    -57.0678
0.151					-68.6096	-17.0898	-80.2612	-33.5693    -46.6919
0.1515					-68.512		-18.3105	-83.6182	-32.3486    -51.2696
0.152					-68.4082	-15.564		-83.6182	-31.7383    -51.8799
0.1525					-68.3105	-18.3105	-91.5527	-32.6538    -58.8989
0.153					-68.2068	-17.395		-83.9233	-34.1797    -49.7436
0.1535					-68.103		-17.395		-74.4629	-31.1279    -43.335
0.154					-68.0054	-17.395		-77.8198	-36.3159    -41.5039
0.1545					-67.8833	-20.1416	-88.1958	-33.2642    -54.9316
0.155					-67.7917	-20.4468	-89.7217	-30.8228    -58.8989
0.1555					-67.7185	-21.0571	-83.0078	-31.4331    -51.5747
0.156					-67.6025	-16.7847	-73.2422	-29.6021    -43.6401
0.1565					-67.4988	-18.3105	-73.2422	-28.6865    -44.5557
0.157					-67.4072	-20.1416	-77.8198	-28.3813    -49.4385
0.1575					-67.3157	-18.0054	-78.7354	-28.6865    -50.0489
0.158					-67.2302	-18.6157	-78.125		-26.5503    -51.5747
0.1585					-67.1082	-20.4468	-74.1577	-29.2969    -44.8608
0.159					-67.0166	-18.9209	-75.3784	-33.5693    -41.8091
0.1595					-66.9189	-20.752		-78.7354	-32.959	    -45.7764
0.16					-66.8091	-20.4468	-86.6699	-32.3486    -54.3213
0.1605					-66.7114	-22.583		-86.9751	-35.4004    -51.5747
0.161					-66.6138	-21.3623	-83.0078	-30.2124    -52.7954
0.1615					-66.5161	-17.7002	-80.5664	-31.7383    -48.8281
0.162					-66.4124	-18.6157	-74.4629	-33.8745    -40.5884
0.1625					-66.3208	-16.1743	-73.8525	-27.4658    -46.3867
0.163					-66.1926	-18.0054	-79.0405	-30.8228    -48.2177
0.1635					-66.1133	-18.9209	-87.2803	-29.2969    -57.9834
0.164					-66.0034	-19.8364	-85.4492	-26.8555    -58.5937
0.1645					-65.918		-14.6484	-85.4492	-32.959	    -52.4902
0.165					-65.8264	-18.3105	-85.4492	-29.2969    -56.1523
0.1655					-65.7166	-18.6157	-78.125		-26.5503    -51.5747
0.166					-65.6006	-20.1416	-78.7354	-27.771	    -50.9644
0.1665					-65.5151	-18.0054	-79.9561	-28.3813    -51.5748
0.167					-65.4175	-20.4468	-78.125		-27.1606    -50.9644
0.1675					-65.3259	-17.395		-86.0596	-32.6538    -53.4058
0.168					-65.2039	-18.0054	-83.6182	-29.9072    -53.711
0.1685					-65.1062	-17.395		-76.5991	-29.6021    -46.997
0.169					-65.0024	-20.752		-77.8198	-34.79	    -43.0298
0.1695					-64.8987	-20.1416	-80.5664	-28.9917    -51.5747
0.17					-64.8193	-17.7002	-74.1577	-31.1279    -43.0298
0.1705					-64.7278	-18.3105	-78.125		-30.5176    -47.6074
0.171					-64.6057	-20.1416	-75.6836	-32.6538    -43.0298
0.1715					-64.502		-19.8364	-81.7871	-28.0762    -53.7109
0.172					-64.4409	-18.3105	-85.7544	-29.9072    -55.8472
0.1725					-64.3066	-18.0054	-89.7217	-32.3486    -57.3731
0.173					-64.2029	-18.6157	-88.8062	-30.5176    -58.2886
0.1735					-64.1113	-16.7847	-77.5146	-30.8228    -46.6918
0.174					-64.0076	-18.0054	-72.937		-31.4331    -41.5039
0.1745					-63.9282	-17.395		-70.8008	-28.6865    -42.1143
0.175					-63.8245	-15.564		-75.6836	-30.2124    -45.4712
0.1755					-63.7207	-19.5313	-77.5146	-25.9399    -51.5747
0.176					-63.6292	-19.2261	-68.9697	-27.4658    -41.5039
0.1765					-63.5437	-16.4795	-75.9888	-31.7383    -44.2505
0.177					-63.4277	-19.2261	-71.4111	-29.2969    -42.1142
0.1775					-63.3301	-17.0898	-68.0542	-26.5503    -41.5039
0.178					-63.208		-17.7002	-78.7354	-26.5503    -52.1851
0.1785					-63.1104	-18.0054	-73.8525	-22.2778    -51.5747
0.179					-63.0432	-15.8691	-71.4111	-24.4141    -46.997
0.1795					-62.9028	-20.1416	-76.9043	-27.1606    -49.7437
0.18					-62.8113	-19.2261	-75.3784	-25.0244    -50.354
0.1805					-62.7319	-16.4795	-73.5474	-25.0244    -48.523
0.181					-62.6282	-17.0898	-75.0732	-29.2969    -45.7763
0.1815					-62.5183	-16.1743	-71.4111	-25.3296    -46.0815
0.182					-62.4268	-16.7847	-75.9888	-24.1089    -51.8799
0.1825					-62.3413	-15.2588	-75.0732	-23.1934    -51.8798
0.183					-62.2192	-16.4795	-75.6836	-24.1089    -51.5747
0.1835					-62.1155	-17.0898	-76.2939	-27.4658    -48.8281
0.184					-62.0178	-13.7329	-76.5991	-28.6865    -47.9126
0.1845					-61.9385	-14.3433	-78.7354	-24.4141    -54.3213
0.185					-61.8286	-15.564		-73.5474	-31.1279    -42.4195
0.1855					-61.7249	-16.1743	-70.8008	-28.6865    -42.1143
0.186					-61.6333	-15.2588	-78.7354	-22.583	    -56.1524
0.1865					-61.5234	-16.7847	-80.8716	-22.2778    -58.5938
0.187					-61.4136	-16.7847	-75.9888	-28.0762    -47.9126
0.1875					-61.3159	-18.6157	-75.3784	-25.0244    -50.354
0.188					-61.2061	-16.7847	-77.2095	-28.0762    -49.1333
0.1885					-61.1206	-15.2588	-65.3076	-27.1606    -38.147
0.189					-61.0168	-17.0898	-79.0405	-31.1279    -47.9126
0.1895					-60.9314	-16.4795	-79.0405	-30.8228    -48.2177
0.19					-60.8337	-15.2588	-85.7544	-29.6021    -56.1523
0.1905					-60.7239	-16.7847	-76.2939	-29.6021    -46.6918
0.191					-60.6201	-17.7002	-75.6836	-29.6021    -46.0815
0.1915					-60.5347	-13.7329	-83.0078	-24.7192    -58.2886
0.192					-60.4187	-16.4795	-79.3457	-27.771	    -51.5747
0.1925					-60.3455	-15.564		-81.7871	-33.8745    -47.9126
0.193					-60.2234	-17.7002	-77.5146	-31.1279    -46.3867
0.1935					-60.1135	-16.4795	-76.9043	-32.959	    -43.9453
0.194					-60.022		-15.2588	-76.2939	-35.4004    -40.8935
0.1945					-59.9365	-17.0898	-80.5664	-34.4849    -46.0815
0.195					-59.8389	-14.9536	-83.6182	-30.8228    -52.7954
0.1955					-59.729		-16.7847	-72.937		-32.6538    -40.2832
0.196					-59.6497	-12.207		-73.5474	-32.6538    -40.8936
0.1965					-59.5398	-18.6157	-70.1904	-32.3486    -37.8418
0.197					-59.4238	-17.7002	-73.2422	-32.3486    -40.8936
0.1975					-59.3384	-15.564		-70.8008	-29.6021    -41.1987
0.198					-59.2285	-17.0898	-65.0024	-33.8745    -31.1279
0.1985					-59.1309	-17.0898	-67.4438	-31.7383    -35.7055
0.199					-59.0454	-16.4795	-72.0215	-28.9917    -43.0298
0.1995					-58.9294	-19.2261	-66.2231	-29.6021    -36.621
0.2					-58.8196	-16.1743	-70.1904	-31.4331    -38.7573
0.2005					-58.7402	-12.8174	-72.3267	-31.4331    -40.8936
0.201					-58.6365	-13.7329	-70.4956	-30.5176    -39.978
0.2015					-58.5266	-16.7847	-67.749		-31.7383    -36.0107
0.202					-58.4351	-16.7847	-65.918		-31.7383    -34.1797
0.2025					-58.3252	-17.0898	-68.0542	-32.0435    -36.0107
0.203					-58.2458	-15.8691	-69.8853	-26.5503    -43.335
0.2035					-58.1421	-13.4277	-63.4766	-26.8555    -36.6211
0.204					-58.0139	-13.1226	-68.9697	-29.6021    -39.3676
0.2045					-57.9468	-15.2588	-72.3267	-30.2124    -42.1143
0.205					-57.8369	-13.7329	-71.7163	-29.2969    -42.4194
0.2055					-57.7332	-14.6484	-70.4956	-27.4658    -43.0298
0.206					-57.6172	-16.1743	-67.1387	-28.9917    -38.147
0.2065					-57.5195	-15.564		-69.8853	-32.6538    -37.2315
0.207					-57.4219	-14.3433	-65.3076	-32.0435    -33.2641
0.2075					-57.3364	-17.0898	-69.2749	-25.3296    -43.9453
0.208					-57.2693	-14.3433	-67.1387	-28.9917    -38.147
0.2085					-57.135		-15.564		-75.3784	-27.1606    -48.2178
0.209					-57.0496	-13.4277	-74.1577	-24.1089    -50.0488
0.2095					-56.9458	-15.8691	-65.918		-28.0762    -37.8418
0.21					-56.8298	-14.0381	-73.2422	-30.8228    -42.4194
0.2105					-56.7444	-17.395		-73.2422	-31.4331    -41.8091
0.211					-56.6528	-13.4277	-75.0732	-29.9072    -45.166
0.2115					-56.543		-14.0381	-67.1387	-32.0435    -35.0952
0.212					-56.4453	-17.0898	-67.1387	-28.0762    -39.0625
0.2125					-56.3477	-14.0381	-70.1904	-30.2124    -39.978
0.213					-56.2256	-15.564		-67.1387	-28.0762    -39.0625
0.2135					-56.1523	-16.4795	-69.5801	-23.4985    -46.0816
0.214					-56.0242	-13.1226	-65.6128	-26.5503    -39.0625
0.2145					-55.9265	-14.0381	-69.8853	-25.6348    -44.2505
0.215					-55.8289	-14.6484	-69.2749	-23.8037    -45.4712
0.2155					-55.7251	-17.395		-63.7817	-26.5503    -37.2314
0.216					-55.6335	-15.2588	-61.9507	-27.771	    -34.1797
0.2165					-55.5542	-15.2588	-60.4248	-24.1089    -36.3159
0.217					-55.426		-17.7002	-63.1714	-29.9072    -33.2642
0.2175					-55.3528	-13.7329	-64.3921	-26.8555    -37.5366
0.218					-55.2551	-15.8691	-64.3921	-23.1934    -41.1987
0.2185					-55.1514	-17.0898	-64.3921	-24.7192    -39.6729
0.219					-55.0537	-16.1743	-62.2559	-26.5503    -35.7056
0.2195					-54.95		-11.2915	-62.2559	-25.3296    -36.9263
0.22					-54.8401	-12.8174	-58.5938	-21.6675    -36.9263
0.2205					-54.7241	-15.8691	-61.9507	-24.4141    -37.5366
0.221					-54.657		-13.4277	-69.2749	-21.6675    -47.6074
0.2215					-54.5532	-12.207		-65.6128	-23.8037    -41.8091
0.222					-54.425		-15.2588	-65.0024	-24.7192    -40.2832
0.2225					-54.3457	-14.0381	-62.8662	-23.8037    -39.0625
0.223					-54.2542	-12.207		-60.73		-24.1089    -36.6211
0.2235					-54.1504	-14.0381	-61.9507	-26.8555    -35.0952
0.224					-54.0405	-14.9536	-68.3594	-21.3623    -46.9971
0.2245					-53.9429	-14.6484	-62.561		-25.3296    -37.2314
0.225					-53.8574	-15.2588	-60.1196	-20.1416    -39.978
0.2255					-53.7415	-13.1226	-64.0869	-22.8882    -41.1987
0.226					-53.6438	-16.4795	-62.8662	-21.0571    -41.8091
0.2265					-53.5645	-11.9019	-62.2559	-20.752	    -41.5039
0.227					-53.4546	-14.6484	-57.9834	-24.7192    -33.2642
0.2275					-53.3569	-13.4277	-60.4248	-23.8037    -36.6211
0.228					-53.2349	-12.5122	-56.4575	-23.8037    -32.6538
0.2285					-53.1433	-14.3433	-56.1523	-22.8882    -33.2641
0.229					-53.064		-14.0381	-57.0679	-19.8364    -37.2315
0.2295					-52.9358	-11.2915	-51.8799	-22.8882    -28.9917
0.23					-52.8503	-13.1226	-54.9316	-21.0571    -33.8745
0.2305					-52.7344	-13.7329	-51.5747	-25.6348    -25.9399
0.231					-52.655		-12.8174	-54.9316	-20.4468    -34.4848
0.2315					-52.5574	-12.5122	-56.7627	-21.6675    -35.0952
0.232					-52.4597	-10.6812	-57.9834	-18.9209    -39.0625
0.2325					-52.3499	-12.5122	-57.0679	-20.1416    -36.9263
0.233					-52.2461	-12.5122	-56.7627	-21.0571    -35.7056
0.2335					-52.1606	-13.4277	-56.1523	-22.583	    -33.5693
0.234					-52.0508	-11.9019	-54.6265	-21.3623    -33.2642
0.2345					-51.9409	-11.2915	-50.0488	-21.9727    -28.0761
0.235					-51.8494	-12.8174	-50.9644	-23.1934    -27.771
0.2355					-51.7456	-12.5122	-50.9644	-22.583	    -28.3814
0.236					-51.6541	-14.3433	-53.4058	-25.0244    -28.3814
0.2365					-51.5625	-12.5122	-53.4058	-21.3623    -32.0435
0.237					-51.4465	-11.9019	-52.1851	-19.8364    -32.3487
0.2375					-51.3306	-18.0054	-58.2886	-22.583	    -35.7056
0.238					-51.2512	-11.5967	-59.8145	-18.6157    -41.1988
0.2385					-51.1353	-14.6484	-57.9834	-18.0054    -39.978
0.239					-51.062		-11.2915	-58.8989	-20.4468    -38.4521
0.2395					-50.9644	-10.6812	-55.2368	-19.2261    -36.0107
0.24					-50.8667	-11.5967	-51.8799	-21.6675    -30.2124
0.2405					-50.769		-14.3433	-56.4575	-20.752	    -35.7055
0.241					-50.647		-12.8174	-57.9834	-18.9209    -39.0625
0.2415					-50.5554	-12.8174	-58.5938	-20.1416    -38.4522
0.242					-50.4578	-11.2915	-55.2368	-18.9209    -36.3159
0.2425					-50.3662	-11.5967	-57.373		-20.1416    -37.2314
0.243					-50.2563	-13.1226	-53.7109	-18.3105    -35.4004
0.2435					-50.1587	-13.7329	-50.9644	-22.2778    -28.6866
0.244					-50.0488	-11.5967	-54.9316	-19.2261    -35.7055
0.2445					-49.9756	-11.2915	-56.4575	-18.6157    -37.8418
0.245					-49.8718	-7.93457	-61.3403	-18.6157    -42.7246
0.2455					-49.7681	-9.46045	-53.7109	-21.3623    -32.3486
0.246					-49.6826	-14.3433	-50.6592	-18.9209    -31.7383
0.2465					-49.5728	-14.6484	-54.3213	-19.5313    -34.79
0.247					-49.4507	-13.1226	-50.0488	-17.7002    -32.3486
0.2475					-49.3774	-11.5967	-50.9644	-18.6157    -32.3487
0.248					-49.2676	-12.5122	-51.5747	-18.6157    -32.959
0.2485					-49.176		-12.5122	-52.4902	-18.3105    -34.1797
0.249					-49.0723	-10.0708	-51.5747	-18.3105    -33.2642
0.2495					-48.9563	-12.207		-53.7109	-18.3105    -35.4004
0.25					-48.8708	-14.0381	-54.9316	-19.5313    -35.4003
0.2505					-48.761		-14.3433	-52.4902	-14.0381    -38.4521
0.251					-48.6755	-12.207		-56.1523	-19.5313    -36.621
0.2515					-48.5779	-14.3433	-49.7437	-17.395	    -32.3487
0.252					-48.4741	-12.207		-48.2178	-20.1416    -28.0762
0.2525					-48.3826	-12.207		-46.0815	-14.0381    -32.0434
0.253					-48.2666	-8.8501		-49.7437	-17.395	    -32.3487
0.2535					-48.1689	-9.76563	-52.7954	-18.0054    -34.79
0.254					-48.053		-13.4277	-49.7437	-18.0054    -31.7383
0.2545					-47.9492	-12.207		-47.3022	-18.0054    -29.2968
0.255					-47.8455	-12.5122	-42.7246	-17.395	    -25.3296
0.2555					-47.7844	-12.8174	-50.9644	-16.7847    -34.1797
0.256					-47.6685	-11.5967	-49.1333	-20.4468    -28.6865
0.2565					-47.5708	-12.8174	-45.7764	-17.0898    -28.6866
0.257					-47.4731	-11.9019	-48.8281	-18.0054    -30.8227
0.2575					-47.3755	-13.7329	-50.354		-19.5313    -30.8227
0.258					-47.2656	-12.5122	-52.7954	-21.0571    -31.7383
0.2585					-47.1863	-12.207		-46.6919	-20.4468    -26.2451
0.259					-47.0581	-12.8174	-43.335		-20.1416    -23.1934
0.2595					-46.9604	-11.5967	-47.6074	-19.8364    -27.771
0.26					-46.8811	-13.4277	-45.4712	-18.6157    -26.8555
0.2605					-46.7712	-8.54492	-45.166		-18.3105    -26.8555
0.261					-46.6614	-11.9019	-42.7246	-19.2261    -23.4985
0.2615					-46.5637	-11.2915	-44.2505	-21.0571    -23.1934
0.262					-46.4722	-8.8501		-46.9971	-14.9536    -32.0435
0.2625					-46.3684	-11.2915	-43.9453	-18.3105    -25.6348
0.263					-46.283		-10.376		-42.1143	-14.9536    -27.1607
0.2635					-46.1609	-9.76563	-42.7246	-18.0054    -24.7192
0.264					-46.0815	-11.9019	-46.0815	-17.7002    -28.3813
0.2645					-45.9717	-9.76563	-46.3867	-16.4795    -29.9072
0.265					-45.8679	-12.8174	-46.6919	-17.7002    -28.9917
0.2655					-45.7825	-9.76563	-45.7764	-18.9209    -26.8555
0.266					-45.6848	-11.2915	-43.9453	-19.5313    -24.414
0.2665					-45.5627	-11.9019	-43.0298	-18.3105    -24.7193
0.267					-45.4895	-12.207		-39.6729	-17.395	    -22.2779
0.2675					-45.3674	-14.9536	-43.0298	-17.0898    -25.94
0.268					-45.2637	-13.1226	-38.147		-19.2261    -18.9209
0.2685					-45.1721	-11.5967	-45.166		-16.4795    -28.6865
0.269					-45.0684	-12.8174	-42.7246	-19.5313    -23.1933
0.2695					-44.9707	-14.0381	-42.1143	-16.7847    -25.3296
0.27					-44.8853	-10.9863	-42.1143	-17.0898    -25.0245
0.2705					-44.7876	-11.2915	-46.6919	-18.9209    -27.771
0.271					-44.6533	-12.207		-41.5039	-18.0054    -23.4985
0.2715					-44.5618	-12.207		-40.5884	-20.752	    -19.8364
0.272					-44.4885	-10.6812	-41.8091	-18.6157    -23.1934
0.2725					-44.3726	-12.207		-39.978		-17.7002    -22.2778
0.273					-44.2627	-12.8174	-42.1143	-21.0571    -21.0572
0.2735					-44.165		-9.46045	-40.8936	-15.2588    -25.6348
0.274					-44.0857	-11.2915	-40.2832	-16.4795    -23.8037
0.2745					-43.988		-11.2915	-40.5884	-18.6157    -21.9727
0.275					-43.8721	-11.9019	-37.5366	-16.7847    -20.7519
0.2755					-43.7866	-10.6812	-37.8418	-16.4795    -21.3623
0.276					-43.6829	-13.4277	-36.6211	-17.395	    -19.2261
0.2765					-43.5669	-10.9863	-39.978		-17.7002    -22.2778
0.277					-43.4692	-9.76563	-39.0625	-18.3105    -20.752
0.2775					-43.3838	-10.9863	-37.8418	-17.395	    -20.4468
0.278					-43.2861	-10.9863	-38.7573	-15.564	    -23.1933
0.2785					-43.1946	-9.46045	-37.8418	-15.2588    -22.583
0.279					-43.0603	-12.5122	-37.5366	-13.7329    -23.8037
0.2795					-42.981		-9.15527	-39.3677	-17.7002    -21.6675
0.28					-42.8711	-10.0708	-39.6729	-15.2588    -24.4141
0.2805					-42.7856	-11.2915	-40.8936	-10.376	    -30.5176
0.281					-42.6697	-9.46045	-33.5693	-13.1226    -20.4467
0.2815					-42.5659	-13.4277	-37.8418	-14.0381    -23.8037
0.282					-42.4683	-12.5122	-37.5366	-15.2588    -22.2778
0.2825					-42.3828	-9.46045	-41.5039	-18.3105    -23.1934
0.283					-42.2791	-10.9863	-39.3677	-14.9536    -24.4141
0.2835					-42.1753	-11.9019	-35.7056	-15.2588    -20.4468
0.284					-42.0776	-11.2915	-39.3677	-13.7329    -25.6348
0.2845					-41.9922	-8.23975	-34.4849	-14.6484    -19.8365
0.285					-41.9006	-9.76563	-35.4004	-19.2261    -16.1743
0.2855					-41.803		-9.46045	-36.6211	-18.9209    -17.7002
0.286					-41.687		-10.9863	-36.9263	-17.395	    -19.5313
0.2865					-41.571		-9.76563	-37.2314	-19.2261    -18.0053
0.287					-41.4978	-11.2915	-39.0625	-13.7329    -25.3296
0.2875					-41.4185	-11.9019	-37.2314	-15.2588    -21.9726
0.288					-41.2903	-9.46045	-38.147		-18.3105    -19.8365
0.2885					-41.2048	-10.376		-35.7056	-18.6157    -17.0899
0.289					-41.0828	-10.376		-34.79		-16.1743    -18.6157
0.2895					-40.979		-12.207		-33.5693	-15.8691    -17.7002
0.29					-40.8813	-10.6812	-33.2642	-15.564	    -17.7002
0.2905					-40.7837	-13.7329	-31.7383	-14.3433    -17.395
0.291					-40.7043	-10.376		-35.0952	-14.6484    -20.4468
0.2915					-40.5823	-11.2915	-31.7383	-16.7847    -14.9536
0.292					-40.4968	-9.46045	-35.4004	-18.0054    -17.395
0.2925					-40.3809	-11.5967	-36.6211	-17.7002    -18.9209
0.293					-40.2893	-8.23975	-39.6729	-13.4277    -26.2452
0.2935					-40.1855	-11.5967	-35.4004	-16.4795    -18.9209
0.294					-40.0879	-10.376		-31.7383	-15.564	    -16.1743
0.2945					-39.9841	-5.79834	-35.4004	-15.564	    -19.8364
0.295					-39.8987	-11.2915	-31.1279	-18.6157    -12.5122
0.2955					-39.7949	-10.6812	-31.1279	-18.0054    -13.1225
0.296					-39.6729	-12.8174	-35.7056	-15.564	    -20.1416
0.2965					-39.5813	-10.6812	-32.0435	-15.564	    -16.4795
0.297					-39.5081	-8.54492	-36.6211	-18.3105    -18.3106
0.2975					-39.386		-11.2915	-36.0107	-15.564	    -20.4467
0.298					-39.2822	-10.0708	-36.9263	-15.2588    -21.6675
0.2985					-39.1846	-10.9863	-31.7383	-18.6157    -13.1226
0.299					-39.0991	-8.8501		-34.4849	-14.3433    -20.1416
0.2995					-39.0076	-8.8501		-35.7056	-16.4795    -19.2261
0.3					-38.8855	-10.6812	-37.8418	-18.9209    -18.9209
0.3005					-38.8062	-7.01904	-38.147		-17.7002    -20.4468
0.301					-38.6963	-10.376		-36.0107	-18.3105    -17.7002
0.3015					-38.5864	-8.23975	-37.2314	-14.3433    -22.8881
0.302					-38.4888	-10.376		-38.147		-18.3105    -19.8365
0.3025					-38.4094	-10.0708	-36.3159	-17.395	    -18.9209
0.303					-38.3118	-9.76563	-35.4004	-17.395	    -18.0054
0.3035					-38.2202	-7.32422	-36.3159	-16.7847    -19.5312
0.304					-38.092		-10.9863	-34.1797	-16.4795    -17.7002
0.3045					-38.0188	-6.71387	-37.8418	-12.8174    -25.0244
0.305					-37.8967	-9.46045	-36.0107	-16.7847    -19.226
0.3055					-37.8052	-10.376		-36.0107	-17.7002    -18.3105
0.306					-37.6831	-9.76563	-34.1797	-14.3433    -19.8364
0.3065					-37.5854	-10.0708	-33.8745	-17.0898    -16.7847
0.307					-37.4939	-11.5967	-31.4331	-16.1743    -15.2588
0.3075					-37.4023	-7.93457	-33.8745	-14.9536    -18.9209
0.308					-37.2986	-8.54492	-34.1797	-17.7002    -16.4795
0.3085					-37.2009	-10.376		-29.2969	-15.564	    -13.7329
0.309					-37.1033	-10.0708	-33.2642	-15.564	    -17.7002
0.3095					-37.0117	-8.8501		-30.5176	-14.0381    -16.4795
0.31					-36.9141	-10.6812	-30.5176	-15.8691    -14.6485
0.3105					-36.8164	-9.46045	-34.4849	-16.1743    -18.3106
0.311					-36.7065	-7.62939	-32.0435	-13.1226    -18.9209
0.3115					-36.5967	-12.5122	-29.6021	-13.7329    -15.8692
0.312					-36.5234	-9.76563	-31.1279	-14.3433    -16.7846
0.3125					-36.438		-8.23975	-30.8228	-12.5122    -18.3106
0.313					-36.3098	-10.0708	-30.2124	-15.564	    -14.6484
0.3135					-36.2183	-7.62939	-26.2451	-15.2588    -10.9863
0.314					-36.1023	-9.46045	-27.1606	-13.1226    -14.038
0.3145					-35.9863	-8.8501		-28.6865	-15.564	    -13.1225
0.315					-35.8948	-9.76563	-25.3296	-16.1743    -9.1553
0.3155					-35.791		-7.93457	-31.1279	-16.7847    -14.3432
0.316					-35.7239	-10.376		-31.1279	-12.5122    -18.6157
0.3165					-35.6018	-8.8501		-32.3486	-18.6157    -13.7329
0.317					-35.5164	-9.46045	-35.0952	-17.7002    -17.395
0.3175					-35.3943	-10.9863	-33.5693	-18.9209    -14.6484
0.318					-35.3027	-6.10352	-31.1279	-14.9536    -16.1743
0.3185					-35.2051	-9.76563	-32.3486	-17.7002    -14.6484
0.319					-35.1013	-6.40869	-34.1797	-16.7847    -17.395
0.3195					-35.0037	-8.54492	-32.3486	-16.4795    -15.8691
0.32					-34.9182	-7.01904	-29.9072	-14.3433    -15.5639
0.3205					-34.8083	-8.23975	-28.9917	-17.0898    -11.9019
0.321					-34.6924	-8.8501		-34.4849	-13.7329    -20.752
0.3215					-34.5947	-7.62939	-28.9917	-17.0898    -11.9019
0.322					-34.5215	-8.23975	-31.1279	-14.3433    -16.7846
0.3225					-34.3933	-9.15527	-32.3486	-15.564	    -16.7846
0.323					-34.2896	-8.23975	-30.8228	-17.395	    -13.4278
0.3235					-34.198		-9.76563	-28.6865	-15.8691    -12.8174
0.324					-34.1064	-9.15527	-25.6348	-15.8691    -9.7657
0.3245					-34.0149	-8.8501		-28.6865	-14.9536    -13.7329
0.325					-33.8989	-8.8501		-29.6021	-14.6484    -14.9537
0.3255					-33.8196	-9.15527	-31.4331	-14.9536    -16.4795
0.326					-33.7158	-7.62939	-32.0435	-14.0381    -18.0054
0.3265					-33.6121	-8.23975	-26.5503	-11.2915    -15.2588
0.327					-33.5083	-8.54492	-22.583		-11.2915    -11.2915
0.3275					-33.4229	-5.49316	-24.4141	-11.9019    -12.5122
0.328					-33.3191	-7.62939	-26.2451	-14.0381    -12.207
0.3285					-33.2275	-7.93457	-29.2969	-15.2588    -14.0381
0.329					-33.0994	-8.8501		-28.3813	-14.9536    -13.4277
0.3295					-33.02		-7.32422	-29.9072	-15.8691    -14.0381
0.33					-32.9041	-9.76563	-25.6348	-13.1226    -12.5122
0.3305					-32.8247	-6.71387	-27.1606	-13.4277    -13.7329
0.331					-32.7087	-7.93457	-22.2778	-14.9536    -7.3242
0.3315					-32.6111	-10.6812	-23.8037	-11.9019    -11.9018
0.332					-32.5195	-9.15527	-25.0244	-11.9019    -13.1225
0.3325					-32.428		-5.18799	-26.2451	-14.9536    -11.2915
0.333					-32.2937	-8.23975	-28.3813	-15.564	    -12.8173
0.3335					-32.2266	-6.40869	-25.0244	-16.1743    -8.8501
0.334					-32.0984	-11.9019	-27.4658	-13.7329    -13.7329
0.3345					-32.0129	-6.10352	-25.9399	-12.5122    -13.4277
0.335					-31.9031	-6.40869	-25.3296	-15.2588    -10.0708
0.3355					-31.8115	-9.15527	-27.4658	-14.0381    -13.4277
0.336					-31.7017	-7.32422	-27.771		-11.9019    -15.8691
0.3365					-31.6284	-6.71387	-29.6021	-12.5122    -17.0899
0.337					-31.5125	-7.62939	-24.1089	-14.3433    -9.7656
0.3375					-31.4148	-7.62939	-27.1606	-11.5967    -15.5639
0.338					-31.3354	-4.57764	-26.2451	-12.8174    -13.4277
0.3385					-31.2012	-9.15527	-28.6865	-11.9019    -16.7846
0.339					-31.1279	-7.93457	-27.4658	-11.5967    -15.8691
0.3395					-31.0303	-7.62939	-26.8555	-11.9019    -14.9536
0.34					-30.9326	-7.93457	-25.6348	-11.5967    -14.0381
0.3405					-30.8289	-7.32422	-26.5503	-9.76563    -16.78467
0.341					-30.7068	-6.10352	-28.6865	-12.8174    -15.8691
0.3415					-30.6152	-6.40869	-28.0762	-11.5967    -16.4795
0.342					-30.5054	-5.18799	-28.3813	-11.9019    -16.4794
0.3425					-30.4382	-7.32422	-25.9399	-14.3433    -11.5966
0.343					-30.3223	-6.71387	-26.2451	-12.207	    -14.0381
0.3435					-30.2246	-7.01904	-27.771		-12.8174    -14.9536
0.344					-30.1331	-6.10352	-28.6865	-13.7329    -14.9536
0.3445					-30.0293	-10.6812	-25.6348	-14.3433    -11.2915
0.345					-29.9194	-5.79834	-24.7192	-12.8174    -11.9018
0.3455					-29.8218	-7.62939	-26.8555	-12.207	    -14.6485
0.346					-29.7485	-7.62939	-23.8037	-10.9863    -12.8174
0.3465					-29.6448	-6.10352	-26.5503	-12.207	    -14.3433
0.347					-29.5105	-7.93457	-27.1606	-13.1226    -14.038
0.3475					-29.425		-7.32422	-29.2969	-14.3433    -14.9536
0.348					-29.3335	-8.23975	-27.1606	-11.2915    -15.8691
0.3485					-29.2297	-7.32422	-25.6348	-12.207	    -13.4278
0.349					-29.1077	-7.93457	-25.3296	-14.6484    -10.6812
0.3495					-29.0222	-7.93457	-27.771		-11.9019    -15.8691
0.35					-28.9246	-6.71387	-21.9727	-10.9863    -10.9864
0.3505					-28.8269	-6.10352	-23.8037	-13.7329    -10.0708
0.351					-28.7109	-8.8501		-21.6675	-12.207	    -9.4605
0.3515					-28.6194	-8.8501		-23.4985	-10.0708    -13.4277
0.352					-28.5278	-8.23975	-20.752		-9.46045    -11.29155
0.3525					-28.4058	-4.88281	-24.7192	-10.9863    -13.7329
0.353					-28.3386	-7.93457	-25.3296	-10.376	    -14.9536
0.3535					-28.2227	-4.88281	-24.4141	-11.9019    -12.5122
0.354					-28.1494	-6.40869	-24.7192	-12.207	    -12.5122
0.3545					-28.0273	-7.32422	-19.5313	-10.9863    -8.545
0.355					-27.948		-5.18799	-19.8364	-14.0381    -5.7983
0.3555					-27.8076	-8.8501		-19.2261	-10.9863    -8.2398
0.356					-27.7039	-7.01904	-23.1934	-10.9863    -12.2071
0.3565					-27.6001	-4.88281	-18.3105	-11.9019    -6.4086
0.357					-27.5024	-5.18799	-21.3623	-12.8174    -8.5449
0.3575					-27.4109	-6.40869	-18.9209	-7.62939    -11.29151
0.358					-27.3376	-3.35693	-21.0571	-13.4277    -7.6294
0.3585					-27.2156	-7.32422	-21.3623	-13.1226    -8.2397
0.359					-27.124		-3.96729	-20.1416	-11.2915    -8.8501
0.3595					-27.0325	-4.88281	-20.4468	-8.54492    -11.90188
0.36					-26.9287	-6.10352	-22.8882	-12.5122    -10.376
0.3605					-26.8372	-6.10352	-20.4468	-10.6812    -9.7656
0.361					-26.7273	-4.88281	-23.8037	-9.76563    -14.03807
0.3615					-26.6113	-6.10352	-24.1089	-10.376	    -13.7329
0.362					-26.5381	-5.49316	-18.6157	-11.9019    -6.7138
0.3625					-26.4465	-5.79834	-18.9209	-12.5122    -6.4087
0.363					-26.3245	-7.01904	-22.583		-8.8501	    -13.7329
0.3635					-26.2329	-5.79834	-20.1416	-11.5967    -8.5449
0.364					-26.1353	-8.23975	-19.5313	-11.9019    -7.6294
0.3645					-26.0132	-7.93457	-18.3105	-11.5967    -6.7138
0.365					-25.9155	-9.15527	-21.3623	-8.23975    -13.12255
0.3655					-25.824		-9.46045	-20.752		-10.0708    -10.6812
0.366					-25.7324	-6.40869	-18.9209	-9.15527    -9.76563
0.3665					-25.6104	-9.15527	-20.752		-10.376	    -10.376
0.367					-25.531		-7.93457	-20.752		-11.2915    -9.4605
0.3675					-25.4272	-8.54492	-18.3105	-9.15527    -9.15523
0.368					-25.3174	-7.01904	-20.752		-14.0381    -6.7139
0.3685					-25.2136	-7.01904	-19.8364	-11.9019    -7.9345
0.369					-25.1221	-10.6812	-21.9727	-10.9863    -10.9864
0.3695					-25.0366	-7.32422	-22.2778	-12.207	    -10.0708
0.37					-24.9451	-5.49316	-18.9209	-12.207	    -6.7139
0.3705					-24.8352	-5.79834	-20.1416	-10.376	    -9.7656
0.371					-24.7131	-7.93457	-17.0898	-12.5122    -4.5776
0.3715					-24.6094	-8.8501		-18.3105	-9.76563    -8.54487
0.372					-24.5544	-4.27246	-17.7002	-10.376	    -7.3242
0.3725					-24.4263	-6.10352	-20.4468	-10.6812    -9.7656
0.373					-24.3164	-6.10352	-20.4468	-10.9863    -9.4605
0.3735					-24.2188	-6.71387	-20.4468	-11.9019    -8.5449
0.374					-24.1455	-5.49316	-17.7002	-8.23975    -9.46045
0.3745					-24.0295	-7.01904	-19.2261	-10.0708    -9.1553
0.375					-23.9258	-9.46045	-15.8691	-7.62939    -8.23971
0.3755					-23.8281	-4.88281	-18.9209	-10.6812    -8.2397
0.376					-23.7427	-3.66211	-16.4795	-10.376	    -6.1035
0.3765					-23.6389	-5.49316	-18.0054	-10.9863    -7.0191
0.377					-23.5352	-4.27246	-18.6157	-10.9863    -7.6294
0.3775					-23.4436	-6.10352	-18.6157	-11.9019    -6.7138
0.378					-23.3215	-4.88281	-17.7002	-8.8501	    -8.8501
0.3785					-23.2483	-5.18799	-20.1416	-9.76563    -10.37597
0.379					-23.114		-9.76563	-16.1743	-9.76563    -6.40867
0.3795					-23.0286	-5.79834	-16.7847	-9.46045    -7.32425
0.38					-22.9248	-7.93457	-18.6157	-10.376	    -8.2397
0.3805					-22.8516	-5.79834	-15.2588	-10.376	    -4.8828
0.381					-22.7417	-5.18799	-20.752		-4.57764    -16.17436
0.3815					-22.6379	-5.18799	-16.7847	-11.2915    -5.4932
0.382					-22.5464	-5.79834	-17.0898	-3.96729    -13.12251
0.3825					-22.4426	-7.62939	-17.0898	-10.376	    -6.7138
0.383					-22.3206	-8.8501		-19.5313	-10.376	    -9.1553
0.3835					-22.2412	-4.88281	-19.2261	-11.2915    -7.9346
0.384					-22.1313	-7.01904	-16.7847	-8.23975    -8.54495
0.3845					-22.0215	-6.71387	-15.8691	-9.15527    -6.71383
0.385					-21.9299	-5.49316	-17.395		-12.5122    -4.8828
0.3855					-21.8323	-10.0708	-14.9536	-9.15527    -5.79833
0.386					-21.7346	-7.01904	-14.6484	-10.9863    -3.6621
0.3865					-21.6431	-4.57764	-15.8691	-11.2915    -4.5776
0.387					-21.5393	-5.18799	-17.0898	-10.376	    -6.7138
0.3875					-21.4417	-7.01904	-12.8174	-8.54492    -4.27248
0.388					-21.3562	-3.66211	-19.5313	-8.54492    -10.98638
0.3885					-21.2219	-6.40869	-18.6157	-13.4277    -5.188
0.389					-21.1548	-5.49316	-17.7002	-11.9019    -5.7983
0.3895					-21.0571	-3.66211	-21.6675	-9.15527    -12.51223
0.39					-20.9473	-4.57764	-20.1416	-7.93457    -12.20703
0.3905					-20.8496	-6.71387	-20.1416	-10.9863    -9.1553
0.391					-20.7214	-6.40869	-21.0571	-9.46045    -11.59665
0.3915					-20.636		-6.40869	-21.6675	-7.62939    -14.03811
0.392					-20.5261	-4.57764	-15.8691	-8.8501	    -7.019
0.3925					-20.4468	-4.88281	-18.0054	-8.54492    -9.46048
0.393					-20.3369	-4.88281	-21.0571	-7.93457    -13.12253
0.3935					-20.2393	-5.49316	-17.395		-5.79834    -11.59666
0.394					-20.1477	-6.10352	-18.6157	-8.8501	    -9.7656
0.3945					-20.05		-2.74658	-17.7002	-8.54492    -9.15528
0.395					-19.9341	-6.10352	-17.395		-8.8501	    -8.5449
0.3955					-19.8486	-4.57764	-13.4277	-8.54492    -4.88278
0.396					-19.7571	-3.96729	-15.8691	-8.23975    -7.62935
0.3965					-19.6533	-5.79834	-17.395		-8.23975    -9.15525
0.397					-19.5313	-5.18799	-15.8691	-7.01904    -8.85006
0.3975					-19.4519	-3.35693	-17.7002	-7.93457    -9.76563
0.398					-19.3604	-6.10352	-19.5313	-8.8501	    -10.6812
0.3985					-19.2505	-3.66211	-17.395		-7.01904    -10.37596
0.399					-19.1345	-5.79834	-12.207		-8.54492    -3.66208
0.3995					-19.0369	-6.71387	-12.8174	-6.40869    -6.40871
0.4					-18.9453	-5.79834	-16.7847	-10.9863    -5.7984
0.4005					-18.8416	-5.18799	-17.0898	-10.376	    -6.7138
0.401					-18.7317	-4.57764	-15.2588	-10.6812    -4.5776
0.4015					-18.6401	-3.66211	-18.6157	-7.62939    -10.98631
0.402					-18.5486	-4.27246	-18.3105	-8.54492    -9.76558
0.4025					-18.4326	-7.32422	-18.6157	-8.8501	    -9.7656
0.403					-18.3594	-3.66211	-17.395		-8.23975    -9.15525
0.4035					-18.2373	-7.62939	-18.9209	-7.62939    -11.29151
0.404					-18.1702	-1.52588	-17.395		-6.10352    -11.29148
0.4045					-18.0359	-5.49316	-16.4795	-8.8501	    -7.6294
0.405					-17.9626	-4.88281	-15.564		-9.46045    -6.10355
0.4055					-17.8345	-5.18799	-15.2588	-9.15527    -6.10353
0.406					-17.7429	-4.27246	-17.395		-7.01904    -10.37596
0.4065					-17.6392	-3.35693	-17.0898	-11.5967    -5.4931
0.407					-17.5293	-5.18799	-16.1743	-6.71387    -9.46043
0.4075					-17.4438	-4.88281	-20.1416	-10.0708    -10.0708
0.408					-17.3706	-4.27246	-16.1743	-8.23975    -7.93455
0.4085					-17.2485	-7.01904	-17.0898	-10.0708    -7.019
0.409					-17.1509	-3.35693	-17.0898	-10.0708    -7.019
0.4095					-17.0654	-3.96729	-12.8174	-8.54492    -4.27248
0.41					-16.9617	-3.05176	-17.395		-7.32422    -10.07078
0.4105					-16.864		-4.27246	-15.564		-7.93457    -7.62943
0.411					-16.7542	-3.96729	-17.395		-7.01904    -10.37596
0.4115					-16.6382	-4.57764	-15.8691	-7.62939    -8.23971
0.412					-16.5588	-4.88281	-17.7002	-7.62939    -10.07081
0.4125					-16.4551	-5.18799	-18.3105	-7.32422    -10.98628
0.413					-16.3452	-6.10352	-13.4277	-7.01904    -6.40866
0.4135					-16.2659	-2.74658	-16.7847	-7.32422    -9.46048
0.414					-16.1499	-4.88281	-12.8174	-7.01904    -5.79836
0.4145					-16.04		-5.18799	-13.1226	-7.01904    -6.10356
0.415					-15.9363	-4.57764	-13.7329	-6.71387    -7.01903
0.4155					-15.8569	-5.79834	-12.5122	-7.01904    -5.49316
0.416					-15.7593	-2.13623	-10.0708	-6.40869    -3.66211
0.4165					-15.6433	-1.83105	-12.5122	-7.93457    -4.57763
0.417					-15.5518	-4.27246	-14.3433	-5.49316    -8.85014
0.4175					-15.4663	-5.49316	-13.7329	-6.10352    -7.62938
0.418					-15.3564	-5.49316	-14.6484	-8.8501	    -5.7983
0.4185					-15.2527	-3.66211	-12.207		-7.93457    -4.27243
0.419					-15.1611	-0.610352	-14.3433	-11.2915    -3.0518
0.4195					-15.0513	-3.66211	-10.376		-4.57764    -5.79836
0.42					-14.9536	-3.96729	-14.9536	-8.8501	    -6.1035
0.4205					-14.8743	-0.915527	-11.9019	-9.15527    -2.74663
0.421					-14.7705	-4.57764	-12.5122	-7.62939    -4.88281
0.4215					-14.6729	-2.74658	-16.7847	-5.49316    -11.29154
0.422					-14.5447	-2.13623	-16.1743	-6.10352    -10.07078
0.4225					-14.4653	-3.05176	-15.2588	-5.49316    -9.76564
0.423					-14.3677	-2.13623	-14.9536	-7.32422    -7.62938
0.4235					-14.2639	-3.96729	-12.5122	-7.01904    -5.49316
0.424					-14.1479	-4.27246	-15.2588	-7.32422    -7.93458
0.4245					-14.0625	-1.52588	-14.6484	-5.18799    -9.46041
0.425					-13.9648	-2.44141	-10.6812	-6.10352    -4.57768
0.4255					-13.8672	-2.44141	-17.395		-6.10352    -11.29148
0.426					-13.7512	-2.74658	-14.0381	-4.27246    -9.76564
0.4265					-13.6475	-3.05176	-11.5967	-4.57764    -7.01906
0.427					-13.5498	-4.27246	-13.7329	-4.27246    -9.46044
0.4275					-13.4583	-4.57764	-14.0381	-4.88281    -9.15529
0.428					-13.3728	-5.49316	-10.376		-8.23975    -2.13625
0.4285					-13.2751	-0.915527	-12.8174	-5.79834    -7.01906
0.429					-13.1775	-3.35693	-11.2915	-4.57764    -6.71386
0.4295					-13.092		-4.57764	-9.15527	-5.18799    -3.96728
0.43					-12.97		-1.2207		-10.0708	-7.01904    -3.05176
0.4305					-12.8784	-3.35693	-10.6812	-5.49316    -5.18804
0.431					-12.7625	-5.79834	-12.8174	-6.10352    -6.71388
0.4315					-12.6648	-3.66211	-12.8174	-4.88281    -7.93459
0.432					-12.5671	-1.52588	-10.6812	-3.05176    -7.62944
0.4325					-12.4756	-2.74658	-10.0708	-5.79834    -4.27246
0.433					-12.3474	-1.52588	-10.9863	-6.10352    -4.88278
0.4335					-12.2742	-1.83105	-9.46045	-4.27246    -5.18799
0.434					-12.1643	-1.2207		-10.9863	-3.35693    -7.62937
0.4345					-12.0544	-2.74658	-11.5967	-4.88281    -6.71389
0.435					-11.9507	-3.35693	-7.32422	-5.79834    -1.52588
0.4355					-11.8591	-1.83105	-10.376		-4.57764    -5.79836
0.436					-11.7737	-3.35693	-10.376		-3.96729    -6.40871
0.4365					-11.676		-2.13623	-10.376		-4.27246    -6.10354
0.437					-11.5601	-3.66211	-9.46045	-3.35693    -6.10352
0.4375					-11.4563	-2.44141	-9.76563	-3.96729    -5.79834
0.438					-11.3647	-3.35693	-11.5967	-5.18799    -6.40871
0.4385					-11.2671	-3.35693	-11.5967	-4.57764    -7.01906
0.439					-11.1633	-1.83105	-8.23975	-5.79834    -2.44141
0.4395					-11.0779	-0.915527	-10.6812	-5.79834    -4.88286
0.44					-10.968		-2.74658	-11.9019	-4.57764    -7.32426
0.4405					-10.8582	0		-10.6812	-7.32422    -3.35698
0.441					-10.7727	-3.35693	-11.2915	-3.05176    -8.23974
0.4415					-10.6689	-0.610352	-7.01904	-6.10352    -0.91552
0.442					-10.5713	-1.83105	-11.2915	-2.44141    -8.85009
0.4425					-10.4614	-2.13623	-11.2915	-6.10352    -5.18798
0.443					-10.3638	-4.88281	-12.5122	-2.74658    -9.76562
0.4435					-10.2661	-1.52588	-12.8174	-6.10352    -6.71388
0.444					-10.1563	-2.44141	-10.9863	-3.35693    -7.62937
0.4445					-10.083		1.2207		-9.46045	-4.88281    -4.57764
0.445					-9.98535	-3.35693	-10.376		-3.66211    -6.71389
0.4455					-9.88159	-1.83105	-8.8501		-2.44141    -6.40869
0.446					-9.76563	-4.27246	-9.46045	-4.27246    -5.18799
0.4465					-9.66797	-4.27246	-13.4277	-5.18799    -8.23971
0.447					-9.58862	-3.05176	-11.2915	-4.88281    -6.40869
0.4475					-9.49097	0.305176	-7.62939	-3.35693    -4.27246
0.448					-9.39331	1.2207		-8.54492	-4.57764    -3.96728
0.4485					-9.29565	-0.305176	-8.8501		-3.66211    -5.18799
0.449					-9.17358	-2.13623	-8.54492	-3.05176    -5.49316
0.4495					-9.05762	-1.83105	-9.46045	-3.66211    -5.79834
0.45					-8.98438	-0.915527	-8.54492	-5.18799    -3.35693
0.4505					-8.87451	-1.2207		-10.9863	-3.66211    -7.32419
0.451					-8.76465	-2.44141	-10.9863	-0.610352   -10.375948
0.4515					-8.66699	-1.52588	-8.54492	-2.74658    -5.79834
0.452					-8.56323	-0.610352	-9.46045	-2.74658    -6.71387
0.4525					-8.47168	-2.44141	-7.62939	-2.13623    -5.49316
0.453					-8.38623	-0.610352	-9.15527	-4.27246    -4.88281
0.4535					-8.28247	-0.915527	-9.46045	-3.35693    -6.10352
0.454					-8.19702	1.52588		-13.4277	-6.40869    -7.01901
0.4545					-8.09326	0		-8.8501		-3.35693    -5.49317
0.455					-7.9834		-1.52588	-10.0708	-2.44141    -7.62939
0.4555					-7.88574	0		-9.46045	-5.79834    -3.66211
0.456					-7.77588	-1.2207		-8.23975	-2.74658    -5.49317
0.4565					-7.67822	-1.52588	-7.32422	-1.52588    -5.79834
0.457					-7.59277	1.2207		-8.8501		-3.35693    -5.49317
0.4575					-7.48291	0		-6.71387	-5.49316    -1.22071
0.458					-7.37915	-0.610352	-7.93457	-3.35693    -4.57764
0.4585					-7.2998		0.915527	-9.15527	-2.13623    -7.01904
0.459					-7.18384	0.610352	-9.46045	-5.18799    -4.27246
0.4595					-7.07397	-0.915527	-8.8501		-4.57764    -4.27246
0.46					-6.97021	-0.915527	-8.54492	-2.13623    -6.40869
0.4605					-6.88477	-2.13623	-7.93457	-4.27246    -3.66211
0.461					-6.78711	-0.305176	-10.376		-4.27246    -6.10354
0.4615					-6.67725	-0.915527	-9.46045	-3.05176    -6.40869
0.462					-6.5918		-0.610352	-6.71387	-4.88281    -1.83106
0.4625					-6.48193	1.52588		-8.54492	-1.83105    -6.71387
0.463					-6.37817	-0.610352	-7.62939	-3.66211    -3.96728
0.4635					-6.29883	-0.915527	-7.93457	-2.74658    -5.18799
0.464					-6.18896	-0.610352	-7.32422	-2.74658    -4.57764
0.4645					-6.08521	-0.915527	-6.71387	-2.44141    -4.27246
0.465					-5.99365	1.2207		-4.57764	-1.2207	    -3.35694
0.4655					-5.896		0		-6.71387	-6.10352    -0.61035
0.466					-5.77393	0		-7.32422	-1.83105    -5.49317
0.4665					-5.68848	-2.13623	-8.23975	-2.44141    -5.79834
0.467					-5.57251	-2.13623	-5.18799	-3.35693    -1.83106
0.4675					-5.48096	3.35693		-6.40869	-1.52588    -4.88281
0.468					-5.39551	-0.915527	-4.88281	-2.44141    -2.4414
0.4685					-5.29175	0.610352	-7.32422	-0.915527   -6.408693
0.469					-5.18188	2.13623		-5.49316	-2.13623    -3.35693
0.4695					-5.07813	-1.52588	-6.10352	-2.74658    -3.35694
0.47					-4.98657	0.610352	-6.10352	-1.52588    -4.57764
0.4705					-4.87671	-0.305176	-6.40869	-1.83105    -4.57764
0.471					-4.77295	1.2207		-7.01904	-2.44141    -4.57763
0.4715					-4.67529	-0.305176	-3.96729	-2.44141    -1.52588
0.472					-4.60205	1.83105		-6.71387	0	    -6.71387
0.4725					-4.49219	0		-8.23975	-1.52588    -6.71387
0.473					-4.39453	-0.610352	-4.88281	-0.915527   -3.967283
0.4735					-4.30298	3.05176		-4.27246	-0.610352   -3.662108
0.474					-4.18701	-2.44141	-6.40869	-1.52588    -4.88281
0.4745					-4.08325	1.2207		-3.66211	-3.05176    -0.61035
0.475					-3.9917		1.52588		-5.79834	-2.13623    -3.66211
0.4755					-3.90015	1.2207		-5.79834	-0.610352   -5.187988
0.476					-3.78418	-1.2207		-3.66211	-3.35693    -0.30518
0.4765					-3.68042	-1.2207		-7.32422	-0.610352   -6.713868
0.477					-3.58276	0		-6.71387	-2.74658    -3.96729
0.4775					-3.49731	0		-6.10352	-1.83105    -4.27247
0.478					-3.38745	0.915527	-6.10352	-2.13623    -3.96729
0.4785					-3.302		0.915527	-4.27246	-0.610352   -3.662108
0.479					-3.17993	1.83105		-2.74658	-2.44141    -0.30517
0.4795					-3.10059	0.305176	-2.74658	-1.52588    -1.2207
0.48					-2.97852	-1.2207		-5.79834	-1.2207	    -4.57764
0.4805					-2.90527	-0.610352	-0.305176	-3.96729    3.662114
0.481					-2.80762	1.2207		-2.74658	0	    -2.74658
0.4815					-2.70996	0.610352	-5.18799	-3.05176    -2.13623
0.482					-2.59399	0		-3.96729	-1.2207	    -2.74659
0.4825					-2.49023	-0.915527	-5.18799	-1.83105    -3.35694
0.483					-2.40479	0		-3.05176	-1.52588    -1.52588
0.4835					-2.28271	-2.13623	-1.52588	-2.74658    1.2207
0.484					-2.18506	0		-3.96729	-1.52588    -2.44141
0.4845					-2.0813		-0.610352	-4.57764	-1.83105    -2.74659
0.485					-1.98975	1.2207		-1.83105	0	    -1.83105
0.4855					-1.88599	0.915527	-3.05176	-1.83105    -1.22071
0.486					-1.78833	-0.305176	-3.66211	-0.915527   -2.746583
0.4865					-1.70898	3.05176		-4.27246	-0.305176   -3.967284
0.487					-1.58691	2.13623		-4.88281	-2.13623    -2.74658
0.4875					-1.50757	0.915527	-3.35693	-1.2207	    -2.13623
0.488					-1.40381	0.610352	-1.83105	-2.44141    0.61036
0.4885					-1.29395	1.52588		-3.66211	2.44141	    -6.10352
0.489					-1.18408	1.83105		-3.35693	-0.305176   -3.051754
0.4895					-1.09863	3.05176		-0.915527	-0.610352   -0.305175
0.49					-0.98877	2.44141		-2.44141	-0.305176   -2.136234
0.4905					-0.891113	2.74658		-3.35693	-1.2207	    -2.13623
0.491					-0.811768	1.2207		-4.57764	0.915527    -5.493167
0.4915					-0.689697	1.52588		-3.66211	2.44141	    -6.10352
0.492					-0.616455	2.13623		-2.74658	-0.610352   -2.136228
0.4925					-0.518799	4.27246		-2.44141	0	    -2.44141
0.493					-0.408936	3.05176		-0.610352	-0.915527   0.305175
0.4935					-0.317383	4.57764		-3.05176	-1.83105    -1.22071
0.494					-0.213623	0.610352	-3.35693	1.2207	    -4.57763
0.4945					-0.109863	1.83105		-1.83105	-0.610352   -1.220698
0.495					0		0.610352	-1.52588	-0.610352   -0.915528
0.4955					0.0915527	3.05176		-3.66211	0.305176    -3.967286
0.496					0.170898	2.13623		-0.610352	0	    -0.610352
0.4965					0.286865	1.52588		-1.83105	0	    -1.83105
0.497					0.366211	2.13623		-1.52588	0.915527    -2.441407
0.4975					0.482178	2.74658		1.2207		-1.2207	    2.4414
0.498					0.579834	2.44141		-2.13623	0.610352    -2.746582
0.4985					0.665283	1.83105		3.35693		-0.610352   3.967282
0.499					0.769043	0		0		2.44141	    -2.44141
0.4995					0.88501		0		1.2207		-0.610352   1.831052
0.5					0.970459	1.83105		-1.2207		0.610352    -1.831052
0.5005					1.07422		1.2207		0.915527	-2.44141    3.356937
0.501					1.19019		3.66211		0		-1.52588    1.52588
0.5015					1.28784		0.610352	-0.610352	0	    -0.610352
0.502					1.3855		0		0		0.915527    -0.915527
0.5025					1.46484		0.610352	1.2207		1.52588	    -0.30518
0.503					1.58691		3.05176		0.610352	2.13623	    -1.525878
0.5035					1.66626		3.66211		1.2207		0.915527    0.305173
0.504					1.78833		0.915527	-0.610352	0.610352    -1.220704
0.5045					1.87378		3.35693		-1.2207		1.83105	    -3.05175
0.505					1.98975		1.2207		0		0.915527    -0.915527
0.5055					2.06909		4.27246		0		1.83105	    -1.83105
0.506					2.16064		1.2207		-0.915527	0.915527    -1.831054
0.5065					2.27051		2.13623		0.305176	1.52588	    -1.220704
0.507					2.38037		2.44141		-1.52588	2.13623	    -3.66211
0.5075					2.47192		4.88281		0.610352	2.44141	    -1.831058
0.508					2.55127		4.88281		0		3.35693	    -3.35693
0.5085					2.66724		3.66211		0		0.305176    -0.305176
0.509					2.7832		3.35693		0.610352	0.610352    0
0.5095					2.88086		3.05176		0		1.52588	    -1.52588
0.51					2.98462		3.05176		-0.305176	4.88281	    -5.187986
0.5105					3.07617		3.05176		0		3.35693	    -3.35693
0.511					3.16162		4.57764		-0.915527	2.13623	    -3.051757
0.5115					3.27759		4.57764		0.610352	0	    0.610352
0.512					3.38745		1.2207		0.610352	2.74658	    -2.136228
0.5125					3.48511		2.13623		1.52588		0	    1.52588
0.513					3.58276		2.74658		0.915527	0	    0.915527
0.5135					3.65601		3.05176		1.52588		0	    1.52588
0.514					3.76587		3.35693		3.66211		3.35693	    0.30518
0.5145					3.86963		3.05176		2.74658		0	    2.74658
0.515					3.95508		5.49316		4.27246		3.96729	    0.30517
0.5155					4.05884		1.83105		2.74658		1.52588	    1.2207
0.516					4.18091		1.2207		1.2207		2.13623	    -0.91553
0.5165					4.25415		3.05176		4.27246		2.44141	    1.83105
0.517					4.37012		0.915527	2.44141		2.13623	    0.30518
0.5175					4.47998		3.66211		4.27246		-0.610352   4.882812
0.518					4.57153		0.915527	2.44141		-0.610352   3.051762
0.5185					4.66309		3.96729		3.35693		2.13623	    1.2207
0.519					4.76074		2.13623		4.27246		3.05176	    1.2207
0.5195					4.87671		1.52588		5.79834		1.2207	    4.57764
0.52					4.96826		5.18799		3.96729		4.88281	    -0.91552
0.5205					5.07202		3.05176		3.35693		4.57764	    -1.22071
0.521					5.18188		2.44141		5.79834		0.915527    4.882813
0.5215					5.26123		2.13623		2.44141		3.66211	    -1.2207
0.522					5.3772		0.305176	3.96729		2.44141	    1.52588
0.5225					5.48096		3.05176		2.74658		3.35693	    -0.61035
0.523					5.57251		2.74658		3.05176		3.05176	    0
0.5235					5.65796		3.66211		4.57764		0.915527    3.662113
0.524					5.76172		2.74658		3.35693		4.27246	    -0.91553
0.5245					5.85327		1.83105		3.96729		0	    3.96729
0.525					5.97534		4.88281		3.96729		2.74658	    1.22071
0.5255					6.073		3.35693		5.79834		2.74658	    3.05176
0.526					6.16455		2.13623		3.35693		3.66211	    -0.30518
0.5265					6.26831		3.35693		1.2207		4.57764	    -3.35694
0.527					6.37817		6.10352		1.2207		3.96729	    -2.74659
0.5275					6.45142		3.05176		5.79834		3.96729	    1.83105
0.528					6.57349		4.88281		5.49316		1.83105	    3.66211
0.5285					6.67114		3.66211		2.44141		5.49316	    -3.05175
0.529					6.7627		5.49316		7.32422		3.66211	    3.66211
0.5295					6.86035		6.10352		7.93457		4.27246	    3.66211
0.53					6.95801		4.57764		8.8501		3.35693	    5.49317
0.5305					7.04346		5.79834		6.10352		2.13623	    3.96729
0.531					7.14111		6.40869		6.71387		6.40869	    0.30518
0.5315					7.26318		6.10352		6.10352		3.05176	    3.05176
0.532					7.36694		0.915527	8.54492		4.27246	    4.27246
0.5325					7.44629		3.96729		5.49316		5.49316	    0
0.533					7.55615		4.27246		7.62939		5.79834	    1.83105
0.5335					7.66602		4.27246		8.23975		3.05176	    5.18799
0.534					7.76367		4.88281		7.62939		4.57764	    3.05175
0.5345					7.86743		3.35693		6.10352		3.96729	    2.13623
0.535					7.97119		3.35693		10.6812		4.27246	    6.40874
0.5355					8.05664		3.96729		6.40869		4.57764	    1.83105
0.536					8.1604		4.27246		7.62939		1.2207	    6.40869
0.5365					8.25806		2.44141		7.01904		5.49316	    1.52588
0.537					8.34351		5.49316		7.62939		4.57764	    3.05175
0.5375					8.44116		6.10352		9.46045		3.66211	    5.79834
0.538					8.55713		4.57764		12.207		3.35693	    8.85007
0.5385					8.64258		6.10352		8.54492		0.915527    7.629393
0.539					8.74634		4.27246		9.76563		4.57764	    5.18799
0.5395					8.83789		3.96729		9.15527		6.40869	    2.74658
0.54					8.94165		4.57764		10.6812		3.05176	    7.62944
0.5405					9.06372		7.01904		9.76563		6.40869	    3.35694
0.541					9.14307		6.71387		8.54492		7.32422	    1.2207
0.5415					9.24683		4.88281		10.6812		5.18799	    5.49321
0.542					9.36279		3.05176		10.376		6.71387	    3.66213
0.5425					9.47266		5.49316		8.54492		5.49316	    3.05176
0.543					9.57031		5.18799		10.0708		1.83105	    8.23975
0.5435					9.65576		6.10352		7.93457		6.71387	    1.2207
0.544					9.75342		6.10352		11.5967		4.57764	    7.01906
0.5445					9.86328		7.62939		10.376		6.40869	    3.96731
0.545					9.93652		5.79834		8.54492		6.10352	    2.4414
0.5455					10.0464		6.40869		9.15527		6.40869	    2.74658
0.546					10.1501		6.10352		11.2915		5.49316	    5.79834
0.5465					10.2356		6.71387		12.207		5.49316	    6.71384
0.547					10.3394		4.57764		10.376		4.88281	    5.49319
0.5475					10.4492		6.40869		11.2915		8.8501	    2.4414
0.548					10.5408		5.18799		13.7329		7.62939	    6.10351
0.5485					10.6567		6.10352		9.76563		7.32422	    2.44141
0.549					10.7422		7.93457		10.9863		6.10352	    4.88278
0.5495					10.8521		5.18799		10.0708		6.71387	    3.35693
0.55					10.9375		5.79834		10.6812		6.10352	    4.57768
0.5505					11.0291		7.32422		9.15527		3.35693	    5.79834
0.551					11.1328		2.74658		14.0381		7.01904	    7.01906
0.5515					11.2427		6.71387		11.2915		6.71387	    4.57763
0.552					11.3525		7.01904		12.5122		6.71387	    5.79833
0.5525					11.4441		5.79834		12.207		7.32422	    4.88278
0.553					11.554		7.32422		14.9536		5.79834	    9.15526
0.5535					11.6516		4.88281		11.5967		6.71387	    4.88283
0.554					11.7554		7.93457		13.7329		7.01904	    6.71386
0.5545					11.853		5.18799		13.7329		6.40869	    7.32421
0.555					11.9324		8.23975		14.0381		3.66211	    10.37599
0.5555					12.0239		7.32422		14.0381		5.79834	    8.23976
0.556					12.1277		7.93457		10.376		5.18799	    5.18801
0.5565					12.2498		6.40869		12.8174		9.15527	    3.66213
0.557					12.3413		6.10352		14.6484		7.01904	    7.62936
0.5575					12.439		6.40869		14.9536		5.49316	    9.46044
0.558					12.5183		8.8501		16.4795		6.40869	    10.07081
0.5585					12.6465		7.01904		13.1226		8.54492	    4.57768
0.559					12.7563		4.88281		15.2588		7.32422	    7.93458
0.5595					12.8601		6.10352		12.8174		6.71387	    6.10353
0.56					12.9517		7.62939		14.3433		8.54492	    5.79838
0.5605					13.0432		7.32422		13.1226		6.71387	    6.40873
0.561					13.1592		6.40869		17.0898		8.54492	    8.54488
0.5615					13.2324		5.79834		15.2588		8.23975	    7.01905
0.562					13.3545		4.27246		17.0898		9.46045	    7.62935
0.5625					13.4644		5.49316		14.6484		7.32422	    7.32418
0.563					13.5498		7.01904		14.0381		7.01904	    7.01906
0.5635					13.6414		7.93457		16.1743		9.15527	    7.01903
0.564					13.7329		8.54492		15.564		8.54492	    7.01908
0.5645					13.8489		7.32422		16.4795		7.01904	    9.46046
0.565					13.9526		8.23975		17.7002		9.76563	    7.93457
0.5655					14.0259		7.32422		18.0054		6.71387	    11.29153
0.566					14.1541		5.79834		18.3105		7.62939	    10.68111
0.5665					14.2395		8.23975		15.564		10.9863	    4.5777
0.567					14.3311		7.01904		15.8691		6.10352	    9.76558
0.5675					14.4165		6.40869		18.0054		8.8501	    9.1553
0.568					14.5325		7.01904		17.395		6.10352	    11.29148
0.5685					14.6484		9.15527		16.4795		7.62939	    8.85011
0.569					14.7461		8.54492		18.0054		8.8501	    9.1553
0.5695					14.8376		7.32422		18.3105		7.32422	    10.98628
0.57					14.9475		5.79834		18.3105		7.32422	    10.98628
0.5705					15.033		8.54492		19.8364		9.46045	    10.37595
0.571					15.1184		8.54492		16.4795		8.54492	    7.93458
0.5715					15.2527		7.01904		19.5313		11.9019	    7.6294
0.572					15.3259		7.62939		20.1416		11.5967	    8.5449
0.5725					15.4297		7.32422		17.395		7.93457	    9.46043
0.573					15.5457		7.01904		18.9209		9.76563	    9.15527
0.5735					15.6372		5.79834		18.9209		11.5967	    7.3242
0.574					15.7227		7.62939		18.0054		9.76563	    8.23977
0.5745					15.8325		10.0708		16.4795		11.5967	    4.8828
0.575					15.9424		9.15527		17.395		11.2915	    6.1035
0.5755					16.0339		8.8501		21.0571		9.46045	    11.59665
0.576					16.1316		8.54492		19.5313		11.9019	    7.6294
0.5765					16.2476		7.01904		21.9727		10.0708	    11.9019
0.577					16.3513		6.71387		22.2778		10.0708	    12.207
0.5775					16.4246		7.32422		19.5313		10.9863	    8.545
0.578					16.5466		8.54492		17.0898		9.46045	    7.62935
0.5785					16.6443		8.8501		20.4468		10.6812	    9.7656
0.579					16.7358		6.40869		18.6157		10.6812	    7.9345
0.5795					16.8274		9.15527		18.6157		10.0708	    8.5449
0.58					16.9373		7.32422		19.5313		9.76563	    9.76567
0.5805					17.0227		9.76563		19.5313		9.76563	    9.76567
0.581					17.1326		7.93457		21.6675		11.5967	    10.0708
0.5815					17.2363		7.62939		18.9209		10.376	    8.5449
0.582					17.3279		6.10352		19.8364		13.1226	    6.7138
0.5825					17.4316		6.40869		19.5313		9.46045	    10.07085
0.583					17.5171		7.62939		21.0571		10.9863	    10.0708
0.5835					17.6331		7.32422		21.6675		13.1226	    8.5449
0.584					17.7429		9.15527		22.8882		10.9863	    11.9019
0.5845					17.8345		8.23975		18.3105		14.3433	    3.9672
0.585					17.926		6.71387		23.1934		11.9019	    11.2915
0.5855					18.0054		10.6812		21.9727		13.1226	    8.8501
0.586					18.1152		5.79834		20.4468		11.5967	    8.8501
0.5865					18.2251		8.54492		20.1416		11.2915	    8.8501
0.587					18.3411		7.62939		24.7192		12.5122	    12.207
0.5875					18.4509		9.76563		22.8882		11.2915	    11.5967
0.588					18.5425		7.32422		21.0571		14.0381	    7.019
0.5885					18.6279		7.01904		25.3296		13.4277	    11.9019
0.589					18.7195		8.8501		25.3296		11.2915	    14.0381
0.5895					18.8293		9.15527		23.1934		12.207	    10.9864
0.59					18.9392		7.32422		23.4985		12.5122	    10.9863
0.5905					19.0125		10.6812		22.8882		11.9019	    10.9863
0.591					19.1406		9.15527		22.8882		15.2588	    7.6294
0.5915					19.22		8.8501		27.1606		14.6484	    12.5122
0.592					19.3115		12.207		24.7192		12.5122	    12.207
0.5925					19.4092		10.376		26.8555		14.0381	    12.8174
0.593					19.5129		8.54492		28.9917		13.1226	    15.8691
0.5935					19.635		9.76563		31.7383		9.15527	    22.58303
0.594					19.7327		9.76563		31.4331		14.3433	    17.0898
0.5945					19.8181		10.0708		26.2451		11.9019	    14.3432
0.595					19.928		9.76563		29.2969		14.6484	    14.6485
0.5955					20.0195		8.8501		25.6348		12.8174	    12.8174
0.596					20.1111		10.0708		26.2451		13.1226	    13.1225
0.5965					20.2393		7.32422		24.4141		14.6484	    9.7657
0.597					20.3247		10.0708		30.2124		14.0381	    16.1743
0.5975					20.4224		10.6812		30.2124		14.9536	    15.2588
0.598					20.5322		8.54492		25.0244		14.6484	    10.376
0.5985					20.6177		9.76563		28.6865		14.6484	    14.0381
0.599					20.7214		11.2915		30.5176		16.1743	    14.3433
0.5995					20.813		10.6812		26.2451		15.564	    10.6811
0.6					20.9351		7.93457		28.0762		14.6484	    13.4278
0.6005					21.0266		10.376		29.6021		16.1743	    13.4278
0.601					21.1243		7.32422		30.8228		15.2588	    15.564
0.6015					21.2341		7.93457		30.2124		15.8691	    14.3433
0.602					21.3135		7.32422		32.6538		14.3433	    18.3105
0.6025					21.4233		8.8501		32.0435		14.3433	    17.7002
0.603					21.5088		9.46045		32.6538		15.564	    17.0898
0.6035					21.6064		11.9019		33.2642		16.7847	    16.4795
0.604					21.7224		10.0708		32.0435		14.6484	    17.3951
0.6045					21.8079		10.376		32.0435		14.0381	    18.0054
0.605					21.9116		8.8501		33.8745		15.2588	    18.6157
0.6055					22.0276		8.54492		28.3813		15.564	    12.8173
0.606					22.1069		11.5967		33.2642		13.4277	    19.8365
0.6065					22.2351		9.46045		33.2642		14.9536	    18.3106
0.607					22.3145		9.76563		33.2642		13.1226	    20.1416
0.6075					22.3999		10.376		34.79		12.207	    22.583
0.608					22.5037		9.76563		30.8228		18.0054	    12.8174
0.6085					22.6135		10.0708		35.4004		15.564	    19.8364
0.609					22.699		12.5122		33.8745		15.564	    18.3105
0.6095					22.8149		9.76563		31.1279		14.9536	    16.1743
0.61					22.9309		11.2915		35.4004		13.7329	    21.6675
0.6105					23.0225		10.0708		35.7056		15.2588	    20.4468
0.611					23.1262		10.9863		32.0435		13.7329	    18.3106
0.6115					23.2239		9.15527		32.0435		16.1743	    15.8692
0.612					23.3215		11.2915		32.3486		14.0381	    18.3105
0.6125					23.4009		11.5967		38.147		14.0381	    24.1089
0.613					23.5291		8.54492		39.6729		17.7002	    21.9727
0.6135					23.6023		10.9863		34.1797		16.1743	    18.0054
0.614					23.7244		10.0708		36.9263		14.9536	    21.9727
0.6145					23.7915		11.9019		39.6729		16.1743	    23.4986
0.615					23.9014		10.376		39.0625		18.0054	    21.0571
0.6155					23.999		11.9019		39.0625		14.0381	    25.0244
0.616					24.1028		12.207		38.4521		14.6484	    23.8037
0.6165					24.2126		10.9863		38.4521		16.7847	    21.6674
0.617					24.3164		8.54492		41.1987		15.564	    25.6347
0.6175					24.3958		12.207		40.8936		18.0054	    22.8882
0.618					24.4995		9.76563		40.2832		15.8691	    24.4141
0.6185					24.6216		13.4277		39.978		17.7002	    22.2778
0.619					24.7253		9.15527		39.6729		16.1743	    23.4986
0.6195					24.8169		10.0708		39.0625		16.1743	    22.8882
0.62					24.9268		11.9019		42.7246		14.6484	    28.0762
0.6205					25		11.5967		42.4194		15.8691	    26.5503
0.621					25.1221		13.4277		38.7573		14.3433	    24.414
0.6215					25.2075		10.0708		41.1987		17.7002	    23.4985
0.622					25.3235		8.8501		42.4194		15.2588	    27.1606
0.6225					25.4028		11.2915		43.335		17.0898	    26.2452
0.623					25.4944		13.1226		44.5557		14.6484	    29.9073
0.6235					25.5981		13.7329		42.1143		18.0054	    24.1089
0.624					25.6897		10.9863		43.335		18.0054	    25.3296
0.6245					25.7935		14.3433		37.2314		13.4277	    23.8037
0.625					25.9155		12.5122		39.978		13.7329	    26.2451
0.6255					25.9949		10.6812		40.5884		17.7002	    22.8882
0.626					26.1047		13.7329		43.335		16.7847	    26.5503
0.6265					26.1902		13.7329		44.2505		17.395	    26.8555
0.627					26.2878		13.1226		42.4194		19.5313	    22.8881
0.6275					26.3855		13.1226		45.4712		18.6157	    26.8555
0.628					26.5015		15.2588		39.978		17.0898	    22.8882
0.6285					26.6235		10.0708		42.1143		18.6157	    23.4986
0.629					26.7212		12.207		44.5557		18.3105	    26.2452
0.6295					26.7883		12.207		41.8091		14.6484	    27.1607
0.63					26.8982		11.5967		43.9453		17.0898	    26.8555
0.6305					27.0142		12.8174		45.166		17.395	    27.771
0.631					27.1179		10.376		46.9971		17.7002	    29.2969
0.6315					27.1973		14.6484		43.9453		18.6157	    25.3296
0.632					27.2888		13.7329		48.2178		19.5313	    28.6865
0.6325					27.3987		13.4277		46.0815		18.0054	    28.0761
0.633					27.5085		11.2915		45.4712		17.395	    28.0762
0.6335					27.5879		13.1226		42.1143		20.1416	    21.9727
0.634					27.7039		10.9863		44.5557		20.752	    23.8037
0.6345					27.7832		11.5967		44.5557		19.5313	    25.0244
0.635					27.9053		11.5967		49.4385		20.752	    28.6865
0.6355					27.9907		13.4277		49.4385		19.8364	    29.6021
0.636					28.1128		13.7329		49.4385		19.2261	    30.2124
0.6365					28.186		13.4277		52.7954		18.9209	    33.8745
0.637					28.302		12.8174		49.4385		19.8364	    29.6021
0.6375					28.4119		12.8174		52.4902		22.583	    29.9072
0.638					28.5095		10.0708		55.542		19.8364	    35.7056
0.6385					28.6072		13.1226		52.7954		21.9727	    30.8227
0.639					28.7048		15.564		50.9644		20.4468	    30.5176
0.6395					28.8086		12.5122		51.8799		19.8364	    32.0435
0.64					28.8879		13.7329		51.5747		20.4468	    31.1279
0.6405					28.9978		12.8174		51.2695		19.2261	    32.0434
0.641					29.0833		13.7329		48.2178		21.6675	    26.5503
0.6415					29.1992		13.4277		51.8799		21.3623	    30.5176
0.642					29.303		13.1226		49.4385		18.0054	    31.4331
0.6425					29.3945		11.9019		48.5229		21.3623	    27.1606
0.643					29.4983		14.0381		50.354		18.3105	    32.0435
0.6435					29.5837		12.5122		53.7109		19.2261	    34.4848
0.644					29.6997		11.9019		58.8989		20.1416	    38.7573
0.6445					29.7913		14.3433		56.1523		20.4468	    35.7055
0.645					29.8889		14.9536		57.9834		21.3623	    36.6211
0.6455					29.9805		15.8691		55.2368		20.4468	    34.79
0.646					30.0781		13.7329		55.2368		20.4468	    34.79
0.6465					30.2002		13.1226		59.2041		21.0571	    38.147
0.647					30.2795		14.9536		57.6782		21.0571	    36.6211
0.6475					30.3833		14.9536		56.1523		22.583	    33.5693
0.648					30.4993		13.4277		59.5093		21.6675	    37.8418
0.6485					30.5969		14.6484		58.2886		21.0571	    37.2315
0.649					30.6885		13.1226		58.5938		21.0571	    37.5367
0.6495					30.7739		15.8691		57.6782		21.9727	    35.7055
0.65					30.896		12.207		58.2886		21.0571	    37.2315
0.6505					30.9937		12.8174		62.561		21.0571	    41.5039
0.651					31.0913		12.5122		60.73		23.1934	    37.5366
0.6515					31.189		12.207		62.8662		23.4985	    39.3677
0.652					31.2805		14.3433		63.1714		19.2261	    43.9453
0.6525					31.4026		15.2588		66.5283		20.752	    45.7763
0.653					31.488		14.6484		62.561		22.8882	    39.6728
0.6535					31.5796		12.5122		59.8145		22.2778	    37.5367
0.654					31.6833		14.9536		57.373		20.4468	    36.9262
0.6545					31.7993		15.2588		57.373		21.3623	    36.0107
0.655					31.8787		17.0898		64.3921		21.0571	    43.335
0.6555					31.9885		11.2915		58.5938		23.1934	    35.4004
0.656					32.074		16.1743		64.0869		21.9727	    42.1142
0.6565					32.1838		15.564		62.561		22.583	    39.978
0.657					32.2937		11.9019		58.2886		22.2778	    36.0108
0.6575					32.373		16.7847		60.73		21.9727	    38.7573
0.658					32.4646		14.9536		62.2559		24.4141	    37.8418
0.6585					32.5867		12.207		62.561		23.4985	    39.0625
0.659					32.6843		16.1743		65.0024		22.2778	    42.7246
0.6595					32.7881		12.8174		59.5093		22.583	    36.9263
0.66					32.8674		16.7847		62.561		24.1089	    38.4521
0.6605					32.9895		15.8691		63.7817		21.3623	    42.4194
0.661					33.0811		15.8691		63.1714		25.0244	    38.147
0.6615					33.1909		16.1743		63.4766		25.3296	    38.147
0.662					33.2947		12.207		65.6128		22.8882	    42.7246
0.6625					33.3984		13.4277		62.2559		25.9399	    36.316
0.663					33.4717		14.9536		65.0024		25.6348	    39.3676
0.6635					33.5999		15.8691		63.7817		22.8882	    40.8935
0.664					33.6853		12.207		65.6128		25.3296	    40.2832
0.6645					33.7891		15.564		67.749		26.2451	    41.5039
0.665					33.8623		13.1226		67.749		27.771	    39.978
0.6655					33.9905		15.8691		67.4438		24.1089	    43.3349
0.666					34.0637		14.3433		70.4956		22.2778	    48.2178
0.6665					34.1736		13.4277		68.3594		23.8037	    44.5557
0.667					34.2834		13.1226		66.5283		21.0571	    45.4712
0.6675					34.3811		14.3433		68.6646		20.752	    47.9126
0.668					34.4849		14.0381		69.2749		20.752	    48.5229
0.6685					34.5642		16.4795		69.8853		22.2778	    47.6075
0.669					34.6802		14.6484		68.9697		19.8364	    49.1333
0.6695					34.7656		16.7847		74.1577		24.4141	    49.7436
0.67					34.8633		16.1743		68.6646		25.9399	    42.7247
0.6705					34.9731		15.8691		66.5283		25.3296	    41.1987
0.671					35.0769		16.1743		73.2422		23.1934	    50.0488
0.6715					35.1746		14.6484		72.3267		24.4141	    47.9126
0.672					35.2539		15.8691		64.6973		25.3296	    39.3677
0.6725					35.3577		16.7847		66.2231		23.4985	    42.7246
0.673					35.4797		16.1743		67.749		28.0762	    39.6728
0.6735					35.5835		14.9536		63.4766		27.771	    35.7056
0.674					35.6689		16.4795		66.5283		24.1089	    42.4194
0.6745					35.7727		16.7847		69.5801		27.4658	    42.1143
0.675					35.8826		14.6484		68.3594		26.2451	    42.1143
0.6755					35.9741		14.6484		65.3076		25.0244	    40.2832
0.676					36.0718		19.5313		63.1714		25.0244	    38.147
0.6765					36.1755		15.2588		61.9507		25.0244	    36.9263
0.677					36.261		18.9209		60.73		24.1089	    36.6211
0.6775					36.377		15.8691		64.0869		25.6348	    38.4521
0.678					36.4685		17.7002		67.749		25.9399	    41.8091
0.6785					36.5845		14.3433		75.3784		24.4141	    50.9643
0.679					36.6577		17.395		70.8008		27.771	    43.0298
0.6795					36.7615		18.3105		68.6646		28.0762	    40.5884
0.68					36.8774		15.8691		67.749		27.771	    39.978
0.6805					36.9812		14.3433		70.4956		29.2969	    41.1987
0.681					37.0789		19.2261		74.1577		28.3813	    45.7764
0.6815					37.1643		18.9209		68.3594		25.3296	    43.0298
0.682					37.2742		14.9536		67.1387		28.3813	    38.7574
0.6825					37.3718		15.8691		68.3594		28.9917	    39.3677
0.683					37.4817		15.2588		70.8008		27.4658	    43.335
0.6835					37.561		20.752		70.4956		28.0762	    42.4194
0.684					37.6648		17.7002		72.0215		26.8555	    45.166
0.6845					37.7625		16.1743		70.8008		28.6865	    42.1143
0.685					37.8784		14.9536		75.0732		26.8555	    48.2177
0.6855					37.97		17.395		71.7163		29.6021	    42.1142
0.686					38.0676		18.6157		73.8525		27.4658	    46.3867
0.6865					38.1775		15.564		73.8525		27.4658	    46.3867
0.687					38.2507		17.0898		74.4629		30.5176	    43.9453
0.6875					38.3484		19.2261		72.0215		27.771	    44.2505
0.688					38.4644		18.3105		77.2095		29.2969	    47.9126
0.6885					38.5559		18.6157		78.4302		26.8555	    51.5747
0.689					38.6536		19.2261		73.8525		27.4658	    46.3867
0.6895					38.7512		16.4795		79.3457		29.9072	    49.4385
0.69					38.8672		17.395		79.0405		28.6865	    50.354
0.6905					38.9648		15.564		74.4629		30.2124	    44.2505
0.691					39.0747		18.6157		79.9561		29.9072	    50.0489
0.6915					39.1541		15.8691		76.5991		28.3813	    48.2178
0.692					39.2578		19.5313		76.5991		29.6021	    46.997
0.6925					39.3555		19.5313		79.9561		28.0762	    51.8799
0.693					39.447		18.6157		76.2939		30.8228	    45.4711
0.6935					39.563		18.0054		70.4956		31.4331	    39.0625
0.694					39.6667		17.395		79.6509		29.9072	    49.7437
0.6945					39.7583		19.5313		79.3457		30.5176	    48.8281
0.695					39.8743		18.6157		73.5474		31.7383	    41.8091
0.6955					39.9475		17.7002		76.2939		31.1279	    45.166
0.696					40.0513		20.752		77.5146		31.1279	    46.3867
0.6965					40.1794		17.0898		76.2939		36.0107	    40.2832
0.697					40.2649		22.583		75.3784		31.1279	    44.2505
0.6975					40.3625		19.5313		80.5664		29.9072	    50.6592
0.698					40.4724		19.2261		76.5991		31.4331	    45.166
0.6985					40.5518		17.7002		73.5474		35.4004	    38.147
0.699					40.6677		17.395		80.8716		32.959	    47.9126
0.6995					40.7471		19.5313		81.7871		32.6538	    49.1333
0.7					40.863		18.6157		76.2939		32.0435	    44.2504
0.7005					40.9729		17.7002		78.7354		31.7383	    46.9971
0.701					41.0645		17.0898		78.4302		29.9072	    48.523
0.7015					41.1621		17.7002		79.6509		31.7383	    47.9126
0.702					41.2476		19.2261		78.4302		34.4849	    43.9453
0.7025					41.3696		18.0054		75.9888		30.5176	    45.4712
0.703					41.449		24.1089		80.2612		34.4849	    45.7763
0.7035					41.5588		22.8882		81.7871		34.1797	    47.6074
0.704					41.6443		19.8364		81.1768		33.8745	    47.3023
0.7045					41.7542		22.2778		83.6182		28.9917	    54.6265
0.705					41.864		17.7002		81.7871		32.0435	    49.7436
0.7055					41.9678		19.8364		84.2285		31.1279	    53.1006
0.706					42.0593		20.4468		81.4819		31.7383	    49.7436
0.7065					42.1448		20.752		82.3975		32.959	    49.4385
0.707					42.2668		18.6157		82.3975		35.4004	    46.9971
0.7075					42.3401		17.7002		83.313		36.3159	    46.9971
0.708					42.4561		16.7847		79.0405		33.8745	    45.166
0.7085					42.572		18.0054		79.0405		32.6538	    46.3867
0.709					42.6697		20.752		77.5146		35.0952	    42.4194
0.7095					42.7673		19.2261		76.5991		34.4849	    42.1142
0.71					42.8528		18.3105		76.9043		32.959	    43.9453
0.7105					42.9504		20.752		85.4492		32.3486	    53.1006
0.711					43.0542		18.9209		85.7544		32.0435	    53.7109
0.7115					43.1396		19.2261		88.1958		35.0952	    53.1006
0.712					43.2678		19.5313		82.0923		31.4331	    50.6592
0.7125					43.3655		18.0054		84.5337		30.2124	    54.3213
0.713					43.4692		18.9209		87.8906		35.7056	    52.185
0.7135					43.5608		21.0571		83.6182		30.5176	    53.1006
0.714					43.6646		17.0898		88.8062		32.0435	    56.7627
0.7145					43.7683		18.9209		85.144		36.0107	    49.1333
0.715					43.8538		20.4468		81.1768		37.2314	    43.9454
0.7155					43.9575		20.1416		82.7026		35.7056	    46.997
0.716					44.0491		19.5313		84.8389		33.5693	    51.2696
0.7165					44.165		18.0054		86.9751		35.7056	    51.2695
0.717					44.2627		21.9727		82.0923		33.8745	    48.2178
0.7175					44.3542		19.8364		81.7871		34.4849	    47.3022
0.718					44.4641		18.3105		85.7544		41.1987	    44.5557
0.7185					44.5435		21.3623		92.1631		36.9263	    55.2368
0.719					44.6472		22.583		85.4492		38.7573	    46.6919
0.7195					44.7449		20.1416		86.0596		33.5693	    52.4903
0.72					44.8364		23.4985		96.4355		36.0107	    60.4248
0.7205					44.9707		19.5313		88.1958		39.3677	    48.8281
0.721					45.0684		19.5313		90.6372		35.4004	    55.2368
0.7215					45.1355		20.752		92.1631		34.1797	    57.9834
0.722					45.2515		22.8882		88.501		35.4004	    53.1006
0.7225					45.3369		18.6157		88.1958		36.0107	    52.1851
0.723					45.4529		24.1089		85.4492		33.8745	    51.5747
0.7235					45.5627		22.583		91.2476		34.4849	    56.7627
0.724					45.6421		21.3623		90.332		34.4849	    55.8471
0.7245					45.7581		21.3623		92.1631		37.2314	    54.9317
0.725					45.8618		21.9727		90.332		37.5366	    52.7954
0.7255					45.9534		20.1416		94.2993		39.3677	    54.9316
0.726					46.051		21.3623		90.9424		39.3677	    51.5747
0.7265					46.1487		20.1416		97.0459		38.147	    58.8989
0.727					46.228		20.752		97.3511		35.0952	    62.2559
0.7275					46.3501		19.8364		87.5854		38.147	    49.4384
0.728					46.4294		23.8037		88.8062		35.7056	    53.1006
0.7285					46.5454		21.6675		87.8906		36.6211	    51.2695
0.729					46.6309		19.8364		90.6372		34.79	    55.8472
0.7295					46.7346		24.1089		93.0786		35.4004	    57.6782
0.73					46.8506		21.3623		101.624		33.5693	    68.0547
0.7305					46.9604		20.752		93.3838		37.5366	    55.8472
0.731					47.0398		22.2778		95.8252		39.0625	    56.7627
0.7315					47.1375		22.583		99.1821		41.1987	    57.9834
0.732					47.2534		21.9727		95.8252		42.4194	    53.4058
0.7325					47.3328		23.1934		98.2666		39.0625	    59.2041
0.733					47.4426		19.5313		100.098		38.7573	    61.3407
0.7335					47.5525		21.3623		100.708		39.3677	    61.3403
0.734					47.6563		23.1934		102.844		39.0625	    63.7815
0.7345					47.7478		21.3623		102.234		41.1987	    61.0353
0.735					47.8271		23.4985		98.2666		38.4521	    59.8145
0.7355					47.937		22.8882		101.929		39.0625	    62.8665
0.736					48.0408		20.1416		99.4873		36.6211	    62.8662
0.7365					48.1323		21.0571		98.5718		36.0107	    62.5611
0.737					48.2483		21.0571		99.1821		34.79	    64.3921
0.7375					48.3521		23.8037		102.844		36.0107	    66.8333
0.738					48.4558		25.6348		100.098		39.978	    60.12
0.7385					48.5474		26.2451		100.403		37.8418	    62.5612
0.739					48.645		22.583		102.539		40.5884	    61.9506
0.7395					48.7488		21.9727		110.168		36.9263	    73.2417
0.74					48.822		24.1089		105.591		39.978	    65.613
0.7405					48.9502		22.2778		102.234		40.8936	    61.3404
0.741					49.0295		23.4985		104.37		38.7573	    65.6127
0.7415					49.1394		22.2778		100.403		39.3677	    61.0353
0.742					49.2371		25.0244		105.591		40.8936	    64.6974
0.7425					49.3408		23.8037		111.694		41.1987	    70.4953
0.743					49.4202		26.5503		100.708		39.0625	    61.6455
0.7435					49.5239		27.4658		103.455		38.4521	    65.0029
0.744					49.6399		22.583		104.98		36.9263	    68.0537
0.7445					49.7314		24.7192		102.234		39.3677	    62.8663
0.745					49.8413		23.1934		112.61		42.7246	    69.8854
0.7455					49.9084		23.1934		116.882		43.9453	    72.9367
0.746					50.0183		25.9399		114.746		41.5039	    73.2421
0.7465					50.1465		20.752		114.746		41.5039	    73.2421
0.747					50.2441		24.1089		115.051		46.3867	    68.6643
0.7475					50.3418		22.8882		110.168		44.8608	    65.3072
0.748					50.4395		20.4468		114.441		41.1987	    73.2423
0.7485					50.5249		26.2451		110.474		41.8091	    68.6649
0.749					50.647		23.1934		108.337		43.335	    65.002
0.7495					50.7385		23.1934		111.084		41.1987	    69.8853
0.75					50.824		24.7192		110.779		38.7573	    72.0217
0.7505					50.9094		23.8037		115.356		43.9453	    71.4107
0.751					51.0132		24.7192		112		43.0298	    68.9702
0.7515					51.123		24.4141		106.506		46.6919	    59.8141
0.752					51.239		23.1934		104.065		44.2505	    59.8145
0.7525					51.3184		22.2778		107.117		45.166	    61.951
0.753					51.4343		23.4985		105.896		44.5557	    61.3403
0.7535					51.532		25.0244		107.422		46.0815	    61.3405
0.754					51.6479		23.1934		117.798		43.9453	    73.8527
0.7545					51.7273		23.4985		118.408		42.7246	    75.6834
0.755					51.8433		24.7192		116.577		41.5039	    75.0731
0.7555					51.9409		24.1089		118.713		42.4194	    76.2936
0.756					52.0386		24.7192		116.272		42.1143	    74.1577
0.7565					52.124		26.5503		126.648		40.2832	    86.3648
0.757					52.2278		23.8037		118.408		41.5039	    76.9041
0.7575					52.3193		27.1606		118.103		42.7246	    75.3784
0.758					52.417		26.2451		119.324		43.6401	    75.6839
0.7585					52.5208		25.6348		112.915		44.5557	    68.3593
0.759					52.6245		24.1089		113.525		45.166	    68.359
0.7595					52.7344		24.4141		122.375		44.8608	    77.5142
0.76					52.8198		25.3296		121.155		45.4712	    75.6838
0.7605					52.9114		26.5503		119.629		45.7764	    73.8526
0.761					53.0273		20.752		117.493		43.335	    74.158
0.7615					53.1189		23.1934		120.85		42.7246	    78.1254
0.762					53.241		24.4141		119.934		43.9453	    75.9887
0.7625					53.3386		24.4141		115.662		46.0815	    69.5805
0.763					53.4241		24.1089		117.493		42.1143	    75.3787
0.7635					53.54		25.3296		116.577		42.4194	    74.1576
0.764					53.6377		26.2451		125.122		43.335	    81.787
0.7645					53.7292		25.0244		122.07		46.3867	    75.6833
0.765					53.8147		27.771		125.122		45.7764	    79.3456
0.7655					53.9307		24.1089		120.85		43.335	    77.515
0.766					54.0039		28.3813		118.408		41.8091	    76.5989
0.7665					54.1077		25.9399		119.629		44.2505	    75.3785
0.767					54.2053		21.9727		117.493		45.166	    72.327
0.7675					54.3091		21.0571		124.817		44.5557	    80.2613
0.768					54.4067		21.0571		116.577		43.6401	    72.9369
0.7685					54.5227		21.9727		124.207		48.2178	    75.9892
0.769					54.6204		23.4985		130.005		47.6074	    82.3976
0.7695					54.7119		21.6675		136.414		43.335	    93.079
0.77					54.8218		21.6675		129.7		43.6401	    86.0599
0.7705					54.895		20.752		130.31		45.166	    85.144
0.771					55.011		22.583		127.258		43.335	    83.923
0.7715					55.1331		20.1416		131.836		43.9453	    87.8907
0.772					55.2368		20.1416		126.038		43.6401	    82.3979
0.7725					55.3345		23.4985		138.55		43.9453	    94.6047
0.773					55.4077		20.752		136.108		45.4712	    90.6368
0.7735					55.5176		25.0244		126.038		47.6074	    78.4306
0.774					55.6091		21.6675		121.46		44.8608	    76.5992
0.7745					55.7251		20.1416		133.667		48.2178	    85.4492
0.775					55.8105		23.8037		131.531		46.6919	    84.8391
0.7755					55.9021		24.4141		138.855		45.166	    93.689
0.776					56.012		24.4141		139.771		45.7764	    93.9946
0.7765					56.1218		23.4985		136.108		46.0815	    90.0265
0.777					56.2073		22.8882		139.465		50.0488	    89.4162
0.7775					56.3171		20.4468		137.634		46.6919	    90.9421
0.778					56.4026		22.8882		141.602		45.4712	    96.1308
0.7785					56.5125		23.4985		143.738		43.0298	    100.7082
0.779					56.5918		23.4985		140.991		45.7764	    95.2146
0.7795					56.7017		25.6348		140.381		48.5229	    91.8581
0.78					56.8237		23.4985		148.01		46.3867	    101.6233
0.7805					56.9214		21.6675		135.498		45.166	    90.332
0.781					57.0129		25.6348		140.381		46.3867	    93.9943
0.7815					57.1045		24.4141		146.179		46.0815	    100.0975
0.782					57.2205		21.9727		156.555		51.5747	    104.9803
0.7825					57.2998		24.4141		148.621		49.1333	    99.4877
0.783					57.4036		23.8037		143.738		47.3022	    96.4358
0.7835					57.5195		24.7192		148.315		49.4385	    98.8765
0.784					57.6172		22.2778		144.043		47.9126	    96.1304
0.7845					57.7087		21.3623		145.569		42.7246	    102.8444
0.785					57.7942		23.1934		149.231		48.5229	    100.7081
0.7855					57.9163		21.9727		143.127		46.9971	    96.1299
0.786					57.9895		24.4141		152.893		50.6592	    102.2338
0.7865					58.1116		20.4468		146.79		48.8281	    97.9619
0.787					58.2275		21.6675		143.127		52.7954	    90.3316
0.7875					58.3252		25.0244		139.16		50.354	    88.806
0.788					58.4045		22.583		137.939		47.6074	    90.3316
0.7885					58.5205		23.8037		137.634		50.0488	    87.5852
0.789					58.6182		23.1934		137.939		47.9126	    90.0264
0.7895					58.6975		22.8882		146.179		46.3867	    99.7923
0.79					58.8135		24.1089		151.062		49.4385	    101.6235
0.7905					58.8928		23.4985		146.179		49.1333	    97.0457
0.791					59.0088		22.8882		148.926		50.354	    98.572
0.7915					59.0942		22.583		146.179		51.2695	    94.9095
0.792					59.1858		21.0571		149.841		51.8799	    97.9611
0.7925					59.2896		23.8037		147.4		46.3867	    101.0133
0.793					59.4055		24.4141		155.945		47.9126	    108.0324
0.7935					59.5154		22.583		162.048		51.5747	    110.4733
0.794					59.5947		23.8037		151.978		54.6265	    97.3515
0.7945					59.7046		22.8882		153.809		49.4385	    104.3705
0.795					59.8022		24.7192		150.757		47.6074	    103.1496
0.7955					59.9121		21.9727		162.354		54.0161	    108.3379
0.796					60.022		24.4141		164.795		51.2695	    113.5255
0.7965					60.0952		27.1606		162.659		54.0161	    108.6429
0.797					60.2051		22.583		166.016		56.4575	    109.5585
0.7975					60.2966		27.1606		159.607		52.1851	    107.4219
0.798					60.3882		24.4141		154.114		54.0161	    100.0979
0.7985					60.5103		25.0244		166.626		52.1851	    114.4409
0.799					60.5896		28.3813		169.067		47.9126	    121.1544
0.7995					60.6995		23.1934		172.729		51.2695	    121.4595
0.8					60.8032		23.4985		179.443		53.4058	    126.0372
0.8005					60.9131		25.0244		166.626		54.0161	    112.6099
0.801					61.0046		22.8882		171.814		54.3213	    117.4927
0.8015					61.0901		24.7192		176.392		50.6592	    125.7328
0.802					61.1877		27.4658		177.917		55.2368	    122.6802
0.8025					61.2976		25.9399		168.152		53.4058	    114.7462
0.803					61.3953		26.5503		175.476		51.2695	    124.2065
0.8035					61.4868		25.3296		179.749		49.7437	    130.0053
0.804					61.5784		26.5503		172.119		50.6592	    121.4598
0.8045					61.6882		28.0762		173.34		55.2368	    118.1032
0.805					61.792		28.3813		172.424		56.7627	    115.6613
0.8055					61.8896		26.5503		173.95		55.542	    118.408
0.806					61.9812		27.771		173.035		57.373	    115.662
0.8065					62.1033		22.8882		172.119		54.6265	    117.4925
0.807					62.1887		23.8037		170.593		61.9507	    108.6423
0.8075					62.3047		24.7192		172.119		57.9834	    114.1356
0.808					62.3657		26.5503		172.729		54.6265	    118.1025
0.8085					62.4695		27.4658		175.476		58.2886	    117.1874
0.809					62.5732		24.4141		180.969		61.9507	    119.0183
0.8095					62.6892		27.771		180.054		65.0024	    115.0516
0.81					62.8052		24.7192		177.002		59.8145	    117.1875
0.8105					62.8784		27.4658		181.58		58.5938	    122.9862
0.811					63.0005		24.1089		177.917		59.5093	    118.4077
0.8115					63.0859		27.1606		180.054		57.373	    122.681
0.812					63.1714		25.9399		181.58		61.3403	    120.2397
0.8125					63.2629		27.1606		187.378		61.6455	    125.7325
0.813					63.3972		24.7192		186.157		61.9507	    124.2063
0.8135					63.4827		24.4141		184.631		63.1714	    121.4596
0.814					63.5864		24.7192		186.462		65.3076	    121.1544
0.8145					63.7024		24.1089		185.547		62.8662	    122.6808
0.815					63.7878		28.0762		183.411		65.3076	    118.1034
0.8155					63.8977		25.0244		184.021		60.4248	    123.5962
0.816					63.9771		26.8555		189.514		63.1714	    126.3426
0.8165					64.0991		27.4658		190.125		61.3403	    128.7847
0.817					64.1907		27.1606		184.631		61.6455	    122.9855
0.8175					64.3005		25.9399		185.242		62.2559	    122.9861
0.818					64.386		24.1089		196.838		58.2886	    138.5494
0.8185					64.4836		25.9399		195.007		57.0679	    137.9391
0.819					64.5935		25.0244		202.942		55.2368	    147.7052
0.8195					64.679		25.3296		198.059		59.8145	    138.2445
0.82					64.7888		26.2451		197.754		56.7627	    140.9913
0.8205					64.8743		27.771		187.073		52.7954	    134.2776
0.821					64.9719		25.6348		188.599		53.1006	    135.4984
0.8215					65.0879		26.2451		188.904		54.9316	    133.9724
0.822					65.1855		24.7192		190.125		62.2559	    127.8691
0.8225					65.2954		28.0762		187.073		59.5093	    127.5637
0.823					65.3931		25.0244		189.514		58.2886	    131.2254
0.8235					65.4785		27.1606		199.28		59.8145	    139.4655
0.824					65.5945		28.3813		205.078		62.8662	    142.2118
0.8245					65.6921		26.2451		198.364		61.0352	    137.3288
0.825					65.7776		26.5503		186.768		65.6128	    121.1552
0.8255					65.8813		28.3813		197.449		63.7817	    133.6673
0.826					65.979		26.8555		197.754		61.9507	    135.8033
0.8265					66.0889		26.8555		188.904		56.7627	    132.1413
0.827					66.1804		25.6348		193.176		62.561	    130.615
0.8275					66.2903		31.1279		191.65		60.73	    130.92
0.828					66.3696		26.5503		185.852		62.2559	    123.5961
0.8285					66.4917		24.1089		192.566		61.0352	    131.5308
0.829					66.5833		29.2969		195.007		62.2559	    132.7511
0.8295					66.6687		29.9072		189.514		60.1196	    129.3944
0.83					66.7908		28.9917		188.293		62.561	    125.732
0.8305					66.8945		23.8037		190.125		62.8662	    127.2588
0.831					66.9922		28.0762		205.994		63.4766	    142.5174
0.8315					67.0715		26.2451		201.416		59.8145	    141.6015
0.832					67.1936		28.9917		193.481		59.2041	    134.2769
0.8325					67.2729		29.2969		192.566		61.9507	    130.6153
0.833					67.395		28.9917		197.449		61.6455	    135.8035
0.8335					67.4988		27.4658		206.909		61.0352	    145.8738
0.834					67.5964		26.8555		198.669		60.73	    137.939
0.8345					67.6941		27.771		203.247		58.5938	    144.6532
0.835					67.7795		26.8555		204.468		65.3076	    139.1604
0.8355					67.8772		28.9917		202.942		62.2559	    140.6861
0.836					67.9749		28.3813		205.383		64.3921	    140.9909
0.8365					68.0664		28.9917		207.214		68.6646	    138.5494
0.837					68.1702		30.8228		212.402		66.5283	    145.8737
0.8375					68.2678		28.3813		217.59		66.5283	    151.0617
0.838					68.3899		29.9072		208.13		70.4956	    137.6344
0.8385					68.4814		29.9072		206.299		70.8008	    135.4982
0.839					68.5913		29.2969		215.454		74.1577	    141.2963
0.8395					68.6951		27.1606		216.37		66.8335	    149.5365
0.84					68.7622		30.8228		215.149		67.749	    147.4
0.8405					68.8904		25.6348		215.149		64.3921	    150.7569
0.841					68.9636		31.4331		204.163		62.561	    141.602
0.8415					69.0735		28.0762		214.233		60.4248	    153.8082
0.842					69.1833		29.6021		214.233		62.2559	    151.9771
0.8425					69.2871		27.771		212.097		65.6128	    146.4842
0.843					69.3726		30.5176		219.116		61.6455	    157.4705
0.8435					69.4702		28.9917		207.214		66.2231	    140.9909
0.844					69.5801		30.2124		222.778		63.7817	    158.9963
0.8445					69.6716		30.5176		215.149		61.9507	    153.1983
0.845					69.7754		30.5176		207.52		72.3267	    135.1933
0.8455					69.8608		28.0762		213.013		64.3921	    148.6209
0.846					69.9524		27.771		208.13		63.4766	    144.6534
0.8465					70.0806		30.5176		194.702		65.6128	    129.0892
0.847					70.166		28.6865		198.669		67.1387	    131.5303
0.8475					70.282		30.8228		197.754		63.4766	    134.2774
0.848					70.3857		24.4141		212.097		61.3403	    150.7567
0.8485					70.459		29.2969		203.552		66.8335	    136.7185
0.849					70.5872		29.6021		212.708		65.6128	    147.0952
0.8495					70.6604		30.5176		208.74		61.9507	    146.7893
0.85					70.7642		28.6865		212.097		66.5283	    145.5687
0.8505					70.8679		30.2124		216.675		63.4766	    153.1984
0.851					70.9717		32.3486		208.435		59.8145	    148.6205
0.8515					71.0632		31.4331		198.059		67.4438	    130.6152
0.852					71.1792		28.0762		204.163		66.8335	    137.3295
0.8525					71.2585		31.1279		209.351		66.5283	    142.8227
0.853					71.3806		27.4658		219.727		66.2231	    153.5039
0.8535					71.4478		31.4331		210.266		70.8008	    139.4652
0.854					71.5515		32.0435		224.915		73.5474	    151.3676
0.8545					71.6736		28.9917		218.506		73.2422	    145.2638
0.855					71.7468		32.959		213.623		72.6318	    140.9912
0.8555					71.8567		31.7383		217.285		69.2749	    148.0101
0.856					71.9604		31.4331		218.201		66.8335	    151.3675
0.8565					72.0886		30.2124		215.149		68.3594	    146.7896
0.857					72.1619		30.8228		200.806		68.3594	    132.4466
0.8575					72.2778		29.9072		219.421		69.8853	    149.5357
0.858					72.345		31.1279		218.506		67.4438	    151.0622
0.8585					72.4426		32.6538		224.915		69.2749	    155.6401
0.859					72.5586		32.0435		227.356		68.3594	    158.9966
0.8595					72.6501		30.5176		220.337		66.8335	    153.5035
0.86					72.7661		31.4331		225.22		69.2749	    155.9451
0.8605					72.8638		33.5693		228.271		66.2231	    162.0479
0.861					72.9614		30.2124		227.051		72.6318	    154.4192
0.8615					73.0713		29.2969		221.252		69.2749	    151.9771
0.862					73.175		30.5176		229.492		68.9697	    160.5223
0.8625					73.2788		30.2124		239.258		71.106	    168.152
0.863					73.3398		32.3486		240.173		71.4111	    168.7619
0.8635					73.4619		31.1279		233.765		72.6318	    161.1332
0.864					73.5596		31.4331		242.92		72.0215	    170.8985
0.8645					73.6572		32.6538		244.751		73.2422	    171.5088
0.865					73.7732		31.7383		242.92		66.8335	    176.0865
0.8655					73.8586		29.2969		229.492		71.106	    158.386
0.866					73.9746		29.2969		239.563		71.106	    168.457
0.8665					74.0601		32.6538		244.141		72.3267	    171.8143
0.867					74.1516		35.4004		241.699		75.3784	    166.3206
0.8675					74.2554		34.4849		229.797		76.9043	    152.8927
0.868					74.3713		32.0435		239.868		77.2095	    162.6585
0.8685					74.4629		32.3486		243.225		74.7681	    168.4569
0.869					74.5483		31.7383		243.835		75.3784	    168.4566
0.8695					74.6582		32.959		250.549		73.5474	    177.0016
0.87					74.762		33.5693		243.53		71.4111	    172.1189
0.8705					74.8474		32.959		236.816		75.3784	    161.4376
0.871					74.9512		35.7056		239.258		72.937	    166.321
0.8715					75.0549		34.1797		244.751		77.8198	    166.9312
0.872					75.1587		32.0435		246.887		69.8853	    177.0017
0.8725					75.2502		33.8745		251.77		76.9043	    174.8657
0.873					75.354		31.7383		257.874		76.9043	    180.9697
0.8735					75.47		33.8745		260.01		79.9561	    180.0539
0.874					75.5432		35.0952		249.329		84.8389	    164.4901
0.8745					75.6653		33.5693		243.835		83.313	    160.522
0.875					75.7629		33.5693		244.751		80.5664	    164.1846
0.8755					75.8667		36.0107		245.056		74.4629	    170.5931
0.876					75.9644		33.5693		246.277		73.8525	    172.4245
0.8765					76.0559		34.79		245.972		72.937	    173.035
0.877					76.1475		32.6538		245.361		81.1768	    164.1842
0.8775					76.2573		35.7056		249.939		74.1577	    175.7813
0.878					76.3489		34.79		260.315		78.7354	    181.5796
0.8785					76.4465		33.2642		256.042		75.0732	    180.9688
0.879					76.532		33.5693		263.367		78.7354	    184.6316
0.8795					76.6357		36.9263		256.653		75.0732	    181.5798
0.88					76.7456		35.4004		266.418		78.125	    188.293
0.8805					76.8494		35.0952		262.146		77.8198	    184.3262
0.881					76.9348		33.8745		258.179		81.7871	    176.3919
0.8815					77.0569		35.4004		261.536		82.3975	    179.1385
0.882					77.1545		32.959		250.244		78.4302	    171.8138
0.8825					77.2583		32.6538		258.789		79.0405	    179.7485
0.883					77.3376		32.6538		250.854		80.2612	    170.5928
0.8835					77.4414		32.3486		258.789		80.5664	    178.2226
0.884					77.5452		34.4849		268.25		83.6182	    184.6318
0.8845					77.6367		36.0107		273.132		84.2285	    188.9035
0.885					77.7527		36.9263		264.587		78.7354	    185.8516
0.8855					77.8503		35.4004		270.691		76.5991	    194.0919
0.886					77.948		33.8745		270.691		81.4819	    189.2091
0.8865					78.0518		32.959		264.587		76.5991	    187.9879
0.887					78.1616		33.2642		260.01		82.0923	    177.9177
0.8875					78.2593		34.4849		271.301		81.1768	    190.1242
0.888					78.3264		31.1279		271.912		81.4819	    190.4301
0.8885					78.4424		35.7056		266.724		78.4302	    188.2938
0.889					78.54		34.79		263.062		83.6182	    179.4438
0.8895					78.6316		35.7056		258.789		86.9751	    171.8139
0.89					78.7659		31.7383		274.658		83.313	    191.345
0.8905					78.8391		34.79		262.451		83.6182	    178.8328
0.891					78.9551		35.0952		262.756		86.3647	    176.3913
0.8915					79.0527		37.2314		266.113		84.5337	    181.5793
0.892					79.1321		36.6211		266.113		87.5854	    178.5276
0.8925					79.2358		36.6211		258.179		87.2803	    170.8987
0.893					79.3518		37.5366		263.672		82.3975	    181.2745
0.8935					79.4495		35.7056		268.555		80.2612	    188.2938
0.894					79.4495		35.7056		268.555		80.2612	    188.2938
0.8945					79.6387		36.6211		265.503		83.9233	    181.5797
0.895					79.7363		37.5366		275.879		79.9561	    195.9229
0.8955					79.8401		38.4521		268.555		76.5991	    191.9559
0.896					79.9438		39.3677		253.906		82.0923	    171.8137
0.8965					80.0354		38.147		258.179		80.5664	    177.6126
0.897					80.1453		39.3677		269.775		83.6182	    186.1568
0.8975					80.2368		36.6211		272.217		84.5337	    187.6833
0.898					80.3284		36.0107		267.334		82.3975	    184.9365
0.8985					80.4565		36.9263		271.301		82.3975	    188.9035
0.899					80.5298		40.8936		277.71		86.6699	    191.0401
0.8995					80.6458		37.2314		276.794		84.2285	    192.5655
0.9					80.7495		36.3159		266.724		87.5854	    179.1386
0.9005					80.8533		37.2314		263.367		88.501	    174.866
0.901					80.9509		36.0107		280.762		86.6699	    194.0921
0.9015					81.0364		39.978		285.339		90.332	    195.007
0.902					81.134		41.5039		267.944		90.0269	    177.9171
0.9025					81.2439		36.0107		279.846		90.6372	    189.2088
0.903					81.3354		36.0107		285.645		92.1631	    193.4819
0.9035					81.4453		37.8418		274.963		88.501	    186.462
0.904					81.5369		37.5366		269.775		88.8062	    180.9688
0.9045					81.6162		36.9263		257.568		88.1958	    169.3722
0.905					81.7444		36.6211		266.113		86.0596	    180.0534
0.9055					81.842		36.0107		278.015		95.8252	    182.1898
0.906					81.9336		36.9263		274.658		91.2476	    183.4104
0.9065					82.0251		37.8418		276.184		84.5337	    191.6503
0.907					82.1533		35.4004		280.762		93.689	    187.073
0.9075					82.2266		39.0625		281.677		89.4165	    192.2605
0.908					82.3364		39.6729		280.457		80.8716	    199.5854
0.9085					82.4402		39.978		288.086		85.7544	    202.3316
0.909					82.5439		41.5039		290.222		84.8389	    205.3831
0.9095					82.6355		38.147		287.781		94.2993	    193.4817
0.91					82.7271		41.5039		289.307		90.9424	    198.3646
0.9105					82.843		38.7573		289.917		87.5854	    202.3316
0.911					82.9285		39.6729		287.781		88.501	    199.28
0.9115					83.0383		40.2832		299.683		90.6372	    209.0458
0.912					83.1421		39.978		303.04		86.3647	    216.6753
0.9125					83.2397		40.5884		289.307		87.8906	    201.4164
0.913					83.3374		37.5366		282.898		90.0269	    192.8711
0.9135					83.4412		37.8418		296.021		88.501	    207.52
0.914					83.5388		39.0625		306.702		90.9424	    215.7596
0.9145					83.6304		41.1987		306.702		89.4165	    217.2855
0.915					83.7219		39.6729		298.157		92.7734	    205.3836
0.9155					83.844		40.2832		289.612		96.4355	    193.1765
0.916					83.9355		41.8091		285.339		94.9097	    190.4293
0.9165					84.021		39.3677		277.71		92.4683	    185.2417
0.917					84.1248		39.978		286.255		93.9941	    192.2609
0.9175					84.2224		40.8936		287.781		88.1958	    199.5852
0.918					84.3262		41.1987		289.917		90.0269	    199.8901
0.9185					84.4421		40.5884		307.617		90.9424	    216.6746
0.919					84.5215		41.5039		304.26		93.0786	    211.1814
0.9195					84.6436		41.5039		299.988		98.2666	    201.7214
0.92					84.7412		39.3677		305.176		96.1304	    209.0456
0.9205					84.8145		45.4712		307.617		100.098	    207.519
0.921					84.9121		41.1987		305.481		97.6563	    207.8247
0.9215					85.0403		39.3677		319.519		94.6045	    224.9145
0.922					85.1379		40.8936		313.11		94.6045	    218.5055
0.9225					85.2356		41.8091		307.007		95.2148	    211.7922
0.923					85.321		39.3677		294.8		99.4873	    195.3127
0.9235					85.4248		41.5039		293.579		100.708	    192.871
0.924					85.5286		39.3677		307.312		101.929	    205.383
0.9245					85.6323		41.1987		320.129		100.403	    219.726
0.925					85.7178		41.8091		305.176		104.065	    201.111
0.9255					85.8215		42.7246		300.598		101.013	    199.585
0.926					85.9192		43.335		303.65		99.7925	    203.8575
0.9265					86.0352		40.8936		299.072		98.2666	    200.8054
0.927					86.1145		43.6401		306.091		99.1821	    206.9089
0.9275					86.2305		43.335		303.345		93.689	    209.656
0.928					86.3159		43.6401		307.617		103.455	    204.162
0.9285					86.4319		44.2505		302.734		100.098	    202.636
0.929					86.5417		43.0298		306.702		98.2666	    208.4354
0.9295					86.6211		43.335		320.129		95.52	    224.609
0.93					86.731		43.6401		323.486		91.5527	    231.9333
0.9305					86.8286		45.7764		334.778		95.52	    239.258
0.931					86.9385		41.5039		319.519		100.708	    218.811
0.9315					87.0117		42.1143		314.941		97.0459	    217.8951
0.932					87.1277		41.5039		328.369		97.0459	    231.3231
0.9325					87.2131		44.8608		332.336		94.2993	    238.0367
0.933					87.3291		41.5039		338.135		95.8252	    242.3098
0.9335					87.439		39.6729		337.83		94.6045	    243.2255
0.934					87.5305		40.8936		346.68		99.4873	    247.1927
0.9345					87.6282		41.8091		341.187		101.318	    239.869
0.935					87.7075		42.1143		331.421		103.455	    227.966
0.9355					87.8235		44.5557		327.759		104.065	    223.694
0.936					87.9089		44.2505		328.064		104.37	    223.694
0.9365					88.0188		42.7246		343.018		101.929	    241.089
0.937					88.1042		42.7246		322.266		97.3511	    224.9149
0.9375					88.1958		43.0298		327.759		95.2148	    232.5442
0.938					88.3301		43.335		330.2		101.318	    228.882
0.9385					88.4155		40.5884		312.5		96.7407	    215.7593
0.939					88.5193		44.5557		310.669		101.013	    209.656
0.9395					88.623		45.4712		306.702		101.318	    205.384
0.94					88.6963		44.8608		326.538		97.3511	    229.1869
0.9405					88.8367		43.6401		322.571		107.117	    215.454
0.941					88.9099		44.5557		323.486		103.455	    220.031
0.9415					89.0137		45.4712		332.642		105.591	    227.051
0.942					89.1113		44.5557		336.914		105.591	    231.323
0.9425					89.2029		43.9453		348.206		104.98	    243.226
0.943					89.3005		45.166		357.056		108.337	    248.719
0.9435					89.4226		45.7764		354.004		104.37	    249.634
0.944					89.5142		46.3867		355.835		112.305	    243.53
0.9445					89.6179		43.335		345.154		104.98	    240.174
0.945					89.7217		44.8608		333.862		112.305	    221.557
0.9455					89.8071		43.0298		336.609		105.591	    231.018
0.946					89.9048		45.166		351.563		97.3511	    254.2119
0.9465					90.0146		46.6919		344.849		97.9614	    246.8876
0.947					90.1123		46.6919		351.257		97.6563	    253.6007
0.9475					90.2161		46.0815		355.835		99.7925	    256.0425
0.948					90.3076		46.6919		364.99		104.065	    260.925
0.9485					90.3992		48.5229		366.821		101.929	    264.892
0.949					90.5151		44.8608		355.835		99.1821	    256.6529
0.9495					90.625		46.3867		357.666		111.694	    245.972
0.95					90.7104		48.2178		355.53		113.831	    241.699
0.9505					90.8081		47.3022		357.056		113.525	    243.531
0.951					90.918		47.9126		355.835		111.084	    244.751
0.9515					91.0217		48.8281		346.069		108.032	    238.037
0.952					91.1011		47.6074		351.868		110.168	    241.7
0.9525					91.217		46.6919		348.816		112.61	    236.206
0.953					91.3025		48.8281		361.328		111.694	    249.634
0.9535					91.4185		47.6074		349.731		115.051	    234.68
0.954					91.5283		49.1333		355.835		110.779	    245.056
0.9545					91.6077		51.8799		348.816		115.356	    233.46
0.955					91.7175		48.5229		369.263		117.493	    251.77
0.9555					91.8152		51.5747		362.244		119.324	    242.92
0.956					91.9189		51.5747		361.023		120.239	    240.784
0.9565					91.9922		48.2178		352.478		124.817	    227.661
0.957					92.1082		53.4058		355.835		123.291	    232.544
0.9575					92.1997		51.8799		344.238		117.493	    226.745
0.958					92.3035		56.7627		359.192		115.967	    243.225
0.9585					92.4072		50.9644		370.178		112.915	    257.263
0.959					92.5171		54.3213		368.958		118.103	    250.855
0.9595					92.6086		51.2695		352.783		117.188	    235.595
0.96					92.6941		53.4058		357.666		111.694	    245.972
0.9605					92.8162		53.4058		370.483		115.051	    255.432
0.961					92.8955		52.7954		365.295		113.831	    251.464
0.9615					92.9993		54.6265		356.445		115.356	    241.089
0.962					93.0969		52.7954		354.919		118.408	    236.511
0.9625					93.1946		53.7109		358.582		119.934	    238.648
0.963					93.3105		50.9644		366.821		117.493	    249.328
0.9635					93.4082		51.5747		358.276		117.493	    240.783
0.964					93.512		47.3022		360.718		122.986	    237.732
0.9645					93.6035		46.0815		352.783		119.629	    233.154
0.965					93.689		47.3022		355.53		125.427	    230.103
0.9655					93.811		44.2505		353.394		119.629	    233.765
0.966					93.9087		45.166		361.633		123.291	    238.342
0.9665					94.0002		48.2178		363.464		124.512	    238.952
0.967					94.0857		45.7764		356.445		127.258	    229.187
0.9675					94.1895		46.0815		367.432		120.544	    246.888
0.968					94.2993		46.0815		375.366		126.648	    248.718
0.9685					94.4153		45.7764		369.263		124.512	    244.751
0.969					94.4946		49.7437		374.756		131.531	    243.225
0.9695					94.6106		44.8608		373.23		123.901	    249.329
0.97					94.7144		47.9126		376.892		121.155	    255.737
0.9705					94.7876		51.2695		380.554		119.629	    260.925
0.971					94.8792		48.5229		388.184		126.648	    261.536
0.9715					95.0134		46.0815		373.23		120.85	    252.38
0.972					95.105		47.6074		378.113		126.038	    252.075
0.9725					95.2087		47.9126		373.23		120.85	    252.38
0.973					95.2881		46.9971		374.451		126.343	    248.108
0.9735					95.3979		48.5229		368.042		130.615	    237.427
0.974					95.4956		47.3022		381.165		137.634	    243.531
0.9745					95.6116		48.2178		371.704		130.005	    241.699
0.975					95.7031		48.2178		368.958		127.869	    241.089
0.9755					95.7886		49.7437		373.84		134.277	    239.563
0.976					95.9045		52.7954		378.723		130.615	    248.108
0.9765					96.0144		48.8281		368.958		132.751	    236.207
0.977					96.0876		51.5747		373.84		129.395	    244.445
0.9775					96.1975		50.6592		375.671		130.005	    245.666
0.978					96.283		49.7437		380.249		124.207	    256.042
0.9785					96.405		52.4902		382.08		132.751	    249.329
0.979					96.5088		50.6592		380.554		130.31	    250.244
0.9795					96.6064		52.4902		376.587		130.005	    246.582
0.98					96.698		49.1333		390.93		133.057	    257.873
0.9805					96.8018		53.1006		387.878		135.803	    252.075
0.981					96.9055		51.8799		378.723		128.784	    249.939
0.9815					96.9849		50.6592		370.178		133.057	    237.121
0.982					97.0947		53.1006		370.483		131.836	    238.647
0.9825					97.1863		54.3213		378.113		136.719	    241.394
0.983					97.3022		53.7109		377.502		137.024	    240.478
0.9835					97.406		51.8799		383.911		132.141	    251.77
0.984					97.5159		51.8799		376.892		137.329	    239.563
0.9845					97.6013		51.5747		385.437		130.31	    255.127
0.985					97.6807		54.6265		382.69		132.141	    250.549
0.9855					97.7966		53.7109		390.93		132.446	    258.484
0.986					97.8821		54.0161		394.592		141.907	    252.685
0.9865					97.9858		57.9834		382.69		144.653	    238.037
0.987					98.0652		57.6782		380.249		146.179	    234.07
0.9875					98.1689		55.542		378.113		144.043	    234.07
0.988					98.3032		57.9834		366.516		137.939	    228.577
0.9885					98.3887		55.2368		387.573		144.348	    243.225
0.989					98.4924		57.6782		375.977		144.958	    231.019
0.9895					98.5962		54.3213		375.977		144.348	    231.629
0.99					98.6694		57.9834		352.478		148.01	    204.468
0.9905					98.7976		54.3213		347.9		154.419	    193.481
0.991					98.877		57.0679		368.652		149.231	    219.421
0.9915					98.9807		57.6782		375.061		142.822	    232.239
0.992					99.0906		57.6782		366.211		148.621	    217.59
0.9925					99.1821		57.0679		363.77		145.874	    217.896
